Time	Strain	Shear Stress
[s]	[1]	[Pa]
88850.12	0.09833232	100
88850.22	0.1089015	100
88850.31	0.1143129	100
88850.42	0.1180982	100
88850.51	0.1210635	100
88850.62	0.1234925	100
88850.72	0.1255971	100
88850.82	0.127414	100
88850.91	0.1290325	100
88851.02	0.1304882	100
88851.12	0.1318173	100
88851.22	0.1330391	100
88851.31	0.1341804	100
88851.42	0.1352473	100
88851.51	0.1362462	100
88851.62	0.1371791	100
88851.72	0.1380586	100
88851.82	0.1388912	100
88851.91	0.1396778	100
88852.02	0.1404309	100
88852.12	0.1411496	100
88852.22	0.1418241	100
88852.31	0.1424908	100
88852.42	0.1431236	100
88852.51	0.1437348	100
88852.62	0.1443208	100
88852.72	0.1448865	100
88852.82	0.1454309	100
88852.91	0.1459586	100
88853.02	0.1464663	100
88853.12	0.1469628	100
88853.22	0.147444	100
88853.31	0.1479156	100
88853.42	0.1483729	100
88853.51	0.148817	100
88853.62	0.1492498	100
88853.72	0.1496753	100
88853.82	0.1500934	100
88853.91	0.1504982	100
88854.02	0.1508909	100
88854.12	0.1512797	100
88854.22	0.1516581	100
88854.31	0.1520254	100
88854.42	0.1523845	100
88854.51	0.1527366	100
88854.62	0.1530818	100
88854.72	0.1534192	100
88854.82	0.1537532	100
88854.91	0.1540792	100
88855.02	0.1543996	100
88855.12	0.1547152	100
88855.22	0.1550268	100
88855.31	0.1553336	100
88855.42	0.1556349	100
88855.51	0.1559305	100
88855.62	0.1562267	100
88855.72	0.156517	100
88855.82	0.1568019	100
88855.91	0.1570847	100
88856.02	0.1573624	100
88856.12	0.1576341	100
88856.22	0.157905	100
88856.31	0.1581692	100
88856.42	0.1584321	100
88856.51	0.1586882	100
88856.62	0.1589425	100
88856.72	0.1591916	100
88856.82	0.1594386	100
88856.91	0.1596816	100
88857.02	0.1599219	100
88857.12	0.1601606	100
88857.22	0.1603949	100
88857.31	0.1606246	100
88857.42	0.1608529	100
88857.51	0.1610784	100
88857.62	0.1612996	100
88857.72	0.1615203	100
88857.82	0.1617355	100
88857.91	0.1619495	100
88858.02	0.162162	100
88858.12	0.1623714	100
88858.22	0.1625793	100
88858.31	0.1627846	100
88858.42	0.1629902	100
88858.51	0.1631898	100
88858.62	0.1633898	100
88858.72	0.1635863	100
88858.82	0.1637838	100
88858.91	0.1639766	100
88859.02	0.164168	100
88859.12	0.1643567	100
88859.22	0.1645444	100
88859.31	0.1647314	100
88859.42	0.1649152	100
88859.51	0.1650977	100
88859.62	0.1652777	100
88859.72	0.1654597	100
88859.82	0.1656358	100
88859.91	0.1658107	100
88860.02	0.1659825	100
88860.12	0.1661542	100
88860.22	0.1663236	100
88860.31	0.1664926	100
88860.42	0.1666606	100
88860.51	0.1668255	100
88860.62	0.1669887	100
88860.72	0.1671496	100
88860.82	0.1673105	100
88860.91	0.1674668	100
88861.02	0.1676244	100
88861.12	0.167781	100
88861.22	0.1679362	100
88861.31	0.1680904	100
88861.42	0.1682419	100
88861.51	0.1683937	100
88861.62	0.1685432	100
88861.72	0.1686899	100
88861.82	0.1688358	100
88861.91	0.1689813	100
88862.02	0.1691252	100
88862.12	0.1692713	100
88862.22	0.1694147	100
88862.31	0.169556	100
88862.42	0.1696957	100
88862.51	0.1698364	100
88862.62	0.1699755	100
88862.72	0.1701131	100
88862.82	0.1702486	100
88862.91	0.1703858	100
88863.02	0.1705222	100
88863.12	0.1706584	100
88863.22	0.1707929	100
88863.31	0.1709254	100
88863.42	0.1710557	100
88863.51	0.1711884	100
88863.62	0.1713179	100
88863.72	0.1714473	100
88863.82	0.1715771	100
88863.91	0.1717068	100
88864.02	0.1718356	100
88864.12	0.1719619	100
88864.22	0.1720879	100
88864.31	0.1722117	100
88864.42	0.1723367	100
88864.51	0.1724604	100
88864.62	0.1725833	100
88864.72	0.1727066	100
88864.82	0.1728262	100
88864.91	0.1729473	100
88865.02	0.1730666	100
88865.12	0.173185	100
88865.22	0.1733022	100
88865.31	0.1734202	100
88865.42	0.173537	100
88865.51	0.1736519	100
88865.62	0.1737679	100
88865.72	0.1738825	100
88865.82	0.1739965	100
88865.91	0.1741084	100
88866.02	0.1742211	100
88866.12	0.1743305	100
88866.22	0.1744423	100
88866.31	0.1745497	100
88866.42	0.1746574	100
88866.51	0.1747674	100
88866.62	0.1748742	100
88866.72	0.1749819	100
88866.82	0.1750871	100
88866.91	0.1751937	100
88867.02	0.1753012	100
88867.12	0.1754055	100
88867.22	0.1755102	100
88867.31	0.1756132	100
88867.42	0.1757158	100
88867.51	0.1758174	100
88867.62	0.1759183	100
88867.72	0.1760188	100
88867.82	0.1761178	100
88867.91	0.1762184	100
88868.02	0.1763184	100
88868.12	0.1764212	100
88868.22	0.1765209	100
88868.31	0.1766215	100
88868.42	0.1767208	100
88868.51	0.1768201	100
88868.62	0.1769184	100
88868.72	0.1770141	100
88868.82	0.1771124	100
88868.91	0.1772088	100
88869.02	0.1773052	100
88869.12	0.1774016	100
88869.22	0.1774965	100
88869.31	0.1775921	100
88869.42	0.1776869	100
88869.51	0.1777824	100
88869.62	0.1778781	100
88869.72	0.1779734	100
88869.82	0.1780673	100
88869.91	0.1781588	100
88870.02	0.1782531	100
88870.12	0.1783455	100
88870.22	0.1784368	100
88870.31	0.1785278	100
88870.42	0.1786204	100
88870.51	0.1787091	100
88870.62	0.1787999	100
88870.72	0.1788908	100
88870.82	0.1789824	100
88870.91	0.1790731	100
88871.02	0.1791612	100
88871.12	0.179251	100
88871.22	0.179339	100
88871.31	0.1794276	100
88871.42	0.1795158	100
88871.51	0.1796033	100
88871.62	0.1796906	100
88871.72	0.1797789	100
88871.82	0.1798628	100
88871.91	0.1799478	100
88872.02	0.1800348	100
88872.12	0.1801202	100
88872.22	0.180204	100
88872.31	0.1802885	100
88872.42	0.1803719	100
88872.51	0.1804558	100
88872.62	0.180539	100
88872.72	0.1806218	100
88872.82	0.1807055	100
88872.91	0.1807883	100
88873.02	0.1808697	100
88873.12	0.1809524	100
88873.22	0.1810332	100
88873.31	0.1811141	100
88873.42	0.181196	100
88873.51	0.1812772	100
88873.62	0.181358	100
88873.72	0.1814379	100
88873.82	0.1815182	100
88873.91	0.1815961	100
88874.02	0.1816752	100
88874.12	0.1817534	100
88874.22	0.1818334	100
88874.31	0.1819108	100
88874.42	0.1819882	100
88874.51	0.1820667	100
88874.62	0.1821429	100
88874.72	0.1822192	100
88874.82	0.1822964	100
88874.91	0.1823727	100
88875.02	0.1824504	100
88875.12	0.1825256	100
88875.22	0.1826027	100
88875.31	0.182676	100
88875.42	0.182752	100
88875.51	0.1828252	100
88875.62	0.1828985	100
88875.72	0.1829737	100
88875.82	0.1830465	100
88875.91	0.1831209	100
88876.02	0.1831922	100
88876.12	0.1832676	100
88876.22	0.1833398	100
88876.31	0.1834128	100
88876.42	0.1834857	100
88876.51	0.1835576	100
88876.62	0.1836311	100
88876.72	0.183704	100
88876.82	0.1837765	100
88876.91	0.1838487	100
88877.02	0.1839197	100
88877.12	0.1839925	100
88877.22	0.184062	100
88877.31	0.1841313	100
88877.42	0.1842037	100
88877.51	0.1842719	100
88877.62	0.1843409	100
88877.72	0.1844137	100
88877.82	0.184482	100
88877.91	0.1845536	100
88878.02	0.1846217	100
88878.12	0.1846932	100
88878.22	0.184761	100
88878.31	0.1848293	100
88878.42	0.1848993	100
88878.51	0.1849669	100
88878.62	0.1850359	100
88878.72	0.1851046	100
88878.82	0.1851737	100
88878.91	0.1852421	100
88879.02	0.185309	100
88879.12	0.1853761	100
88879.22	0.1854424	100
88879.31	0.1855089	100
88879.42	0.1855771	100
88879.51	0.1856439	100
88879.62	0.1857094	100
88879.72	0.1857767	100
88879.82	0.1858429	100
88879.91	0.18591	100
88880.02	0.1859753	100
88880.12	0.1860403	100
88880.22	0.1861092	100
88880.31	0.1861753	100
88880.42	0.1862411	100
88880.51	0.186308	100
88880.62	0.1863752	100
88880.72	0.1864402	100
88880.82	0.1865044	100
88880.91	0.1865682	100
88881.02	0.1866327	100
88881.12	0.1866959	100
88881.22	0.1867606	100
88881.31	0.1868232	100
88881.42	0.1868883	100
88881.51	0.1869528	100
88881.62	0.1870179	100
88881.72	0.1870827	100
88881.82	0.1871473	100
88881.91	0.1872096	100
88882.02	0.1872737	100
88882.12	0.1873374	100
88882.22	0.1874018	100
88882.31	0.1874651	100
88882.42	0.1875286	100
88882.51	0.1875911	100
88882.62	0.1876553	100
88882.72	0.1877174	100
88882.82	0.1877796	100
88882.91	0.1878429	100
88883.02	0.1879038	100
88883.12	0.1879636	100
88883.22	0.1880251	100
88883.31	0.1880856	100
88883.42	0.1881484	100
88883.51	0.1882091	100
88883.62	0.18827	100
88883.72	0.1883294	100
88883.82	0.1883905	100
88883.91	0.1884492	100
88884.02	0.1885104	100
88884.12	0.1885724	100
88884.22	0.1886317	100
88884.31	0.1886907	100
88884.42	0.1887524	100
88884.51	0.1888102	100
88884.62	0.1888689	100
88884.72	0.1889273	100
88884.82	0.1889836	100
88884.91	0.1890438	100
88885.02	0.1891015	100
88885.12	0.1891591	100
88885.22	0.1892173	100
88885.31	0.1892735	100
88885.42	0.1893319	100
88885.51	0.1893904	100
88885.62	0.1894473	100
88885.72	0.1895049	100
88885.82	0.1895631	100
88885.91	0.1896196	100
88886.02	0.1896775	100
88886.12	0.1897339	100
88886.22	0.1897899	100
88886.31	0.1898463	100
88886.42	0.1899038	100
88886.51	0.1899646	100
88886.62	0.1900225	100
88886.72	0.1900785	100
88886.82	0.1901332	100
88886.91	0.19019	100
88887.02	0.1902472	100
88887.12	0.1903033	100
88887.22	0.1903574	100
88887.31	0.1904136	100
88887.42	0.1904673	100
88887.51	0.1905244	100
88887.62	0.1905785	100
88887.72	0.190633	100
88887.82	0.1906892	100
88887.91	0.1907434	100
88888.02	0.1907999	100
88888.12	0.1908545	100
88888.22	0.1909072	100
88888.31	0.190962	100
88888.42	0.1910162	100
88888.51	0.1910717	100
88888.62	0.1911244	100
88888.72	0.1911782	100
88888.82	0.1912301	100
88888.91	0.191285	100
88889.02	0.1913377	100
88889.12	0.1913888	100
88889.22	0.1914425	100
88889.31	0.1914959	100
88889.42	0.1915508	100
88889.51	0.1916014	100
88889.62	0.1916547	100
88889.72	0.1917067	100
88889.82	0.1917601	100
88889.91	0.1918131	100
88890.02	0.1918647	100
88890.12	0.1919165	100
88890.22	0.1919678	100
88890.31	0.1920209	100
88890.42	0.1920723	100
88890.51	0.1921244	100
88890.62	0.1921756	100
88890.72	0.1922272	100
88890.82	0.1922787	100
88890.91	0.1923312	100
88891.02	0.1923826	100
88891.12	0.1924329	100
88891.22	0.1924845	100
88891.31	0.1925352	100
88891.42	0.1925858	100
88891.51	0.1926371	100
88891.62	0.1926866	100
88891.72	0.1927375	100
88891.82	0.1927887	100
88891.91	0.1928389	100
88892.02	0.1928896	100
88892.12	0.1929385	100
88892.22	0.1929904	100
88892.31	0.1930399	100
88892.42	0.1930916	100
88892.51	0.1931418	100
88892.62	0.1931901	100
88892.72	0.1932402	100
88892.82	0.1932895	100
88892.91	0.1933391	100
88893.02	0.1933889	100
88893.12	0.1934387	100
88893.22	0.1934882	100
88893.31	0.1935391	100
88893.42	0.193588	100
88893.51	0.1936378	100
88893.62	0.1936862	100
88893.72	0.1937356	100
88893.82	0.1937858	100
88893.91	0.1938339	100
88894.02	0.1938819	100
88894.12	0.1939309	100
88894.22	0.1939783	100
88894.31	0.1940272	100
88894.42	0.1940756	100
88894.51	0.1941234	100
88894.62	0.1941719	100
88894.72	0.1942194	100
88894.82	0.1942694	100
88894.91	0.1943169	100
88895.02	0.1943647	100
88895.12	0.1944126	100
88895.22	0.1944597	100
88895.31	0.1945071	100
88895.42	0.194555	100
88895.51	0.1946019	100
88895.62	0.1946507	100
88895.72	0.1946975	100
88895.82	0.1947458	100
88895.91	0.1947941	100
88896.02	0.1948406	100
88896.12	0.1948873	100
88896.22	0.1949351	100
88896.31	0.1949822	100
88896.42	0.195028	100
88896.51	0.1950741	100
88896.62	0.1951215	100
88896.72	0.195169	100
88896.82	0.1952139	100
88896.91	0.1952612	100
88897.02	0.1953073	100
88897.12	0.1953523	100
88897.22	0.1953986	100
88897.31	0.1954446	100
88897.42	0.1954899	100
88897.51	0.1955356	100
88897.62	0.1955805	100
88897.72	0.1956273	100
88897.82	0.1956729	100
88897.91	0.1957171	100
88898.02	0.1957618	100
88898.12	0.1958071	100
88898.22	0.1958531	100
88898.31	0.1958984	100
88898.42	0.1959424	100
88898.51	0.1959889	100
88898.62	0.1960336	100
88898.72	0.1960775	100
88898.82	0.1961225	100
88898.91	0.1961651	100
88899.02	0.1962104	100
88899.12	0.1962554	100
88899.22	0.1962982	100
88899.31	0.196344	100
88899.42	0.1963881	100
88899.51	0.1964327	100
88899.62	0.1964765	100
88899.72	0.1965198	100
88899.82	0.1965648	100
88899.91	0.1966072	100
88900.02	0.1966497	100
88900.12	0.1966926	100
88900.22	0.1967355	100
88900.31	0.1967795	100
88900.42	0.1968223	100
88900.51	0.1968653	100
88900.62	0.1969089	100
88900.72	0.1969511	100
88900.82	0.1969931	100
88900.91	0.1970354	100
88901.02	0.1970776	100
88901.12	0.1971206	100
88901.22	0.1971621	100
88901.31	0.1972031	100
88901.42	0.197246	100
88901.51	0.1972879	100
88901.62	0.1973306	100
88901.72	0.1973729	100
88901.82	0.1974124	100
88901.91	0.1974562	100
88902.02	0.1974969	100
88902.12	0.1975389	100
88902.22	0.1975807	100
88902.31	0.197622	100
88902.42	0.1976641	100
88902.51	0.197705	100
88902.62	0.197746	100
88902.72	0.1977874	100
88902.82	0.197828	100
88902.91	0.1978693	100
88903.02	0.1979106	100
88903.12	0.1979506	100
88903.22	0.1979934	100
88903.31	0.1980328	100
88903.42	0.1980726	100
88903.51	0.1981148	100
88903.62	0.1981543	100
88903.72	0.1981957	100
88903.82	0.1982368	100
88903.91	0.1982771	100
88904.02	0.198318	100
88904.12	0.1983589	100
88904.22	0.1983987	100
88904.31	0.1984401	100
88904.42	0.1984808	100
88904.51	0.1985213	100
88904.62	0.198561	100
88904.72	0.1986008	100
88904.82	0.1986423	100
88904.91	0.1986799	100
88905.02	0.1987197	100
88905.12	0.1987606	100
88905.22	0.1987988	100
88905.31	0.1988396	100
88905.42	0.1988786	100
88905.51	0.1989186	100
88905.62	0.1989578	100
88905.72	0.1989965	100
88905.82	0.199037	100
88905.91	0.1990755	100
88906.02	0.1991144	100
88906.12	0.1991552	100
88906.22	0.1991943	100
88906.31	0.1992355	100
88906.42	0.1992733	100
88906.51	0.1993128	100
88906.62	0.199352	100
88906.72	0.1993909	100
88906.82	0.1994303	100
88906.91	0.1994703	100
88907.02	0.1995075	100
88907.12	0.1995476	100
88907.22	0.1995841	100
88907.31	0.199622	100
88907.42	0.199661	100
88907.51	0.1996995	100
88907.62	0.1997384	100
88907.72	0.1997787	100
88907.82	0.1998155	100
88907.91	0.1998544	100
88908.02	0.1998917	100
88908.12	0.1999326	100
88908.22	0.1999703	100
88908.31	0.2000083	100
88908.42	0.2000459	100
88908.51	0.2000842	100
88908.62	0.2001219	100
88908.72	0.2001596	100
88908.82	0.2001964	100
88908.91	0.2002351	100
88909.02	0.2002741	100
88909.12	0.2003117	100
88909.22	0.2003509	100
88909.31	0.2003874	100
88909.42	0.200425	100
88909.51	0.2004624	100
88909.62	0.2004996	100
88909.72	0.2005366	100
88909.82	0.2005732	100
88909.91	0.2006093	100
88910.02	0.2006466	100
88910.12	0.2006828	100
88910.22	0.200721	100
88910.31	0.200759	100
88910.42	0.2007949	100
88910.51	0.2008327	100
88910.62	0.2008694	100
88910.72	0.2009063	100
88910.82	0.2009413	100
88910.91	0.2009788	100
88911.02	0.2010154	100
88911.12	0.2010522	100
88911.22	0.201089	100
88911.31	0.2011257	100
88911.42	0.2011618	100
88911.51	0.2011987	100
88911.62	0.2012351	100
88911.72	0.2012715	100
88911.82	0.2013084	100
88911.91	0.2013445	100
88912.02	0.2013815	100
88912.12	0.2014185	100
88912.22	0.2014527	100
88912.31	0.2014874	100
88912.42	0.2015256	100
88912.51	0.20156	100
88912.62	0.2015977	100
88912.72	0.201633	100
88912.82	0.2016695	100
88912.91	0.201707	100
88913.02	0.2017417	100
88913.12	0.2017766	100
88913.22	0.2018134	100
88913.31	0.2018482	100
88913.42	0.2018844	100
88913.51	0.2019208	100
88913.62	0.2019583	100
88913.72	0.2019935	100
88913.82	0.2020289	100
88913.91	0.2020648	100
88914.02	0.2021005	100
88914.12	0.2021362	100
88914.22	0.2021723	100
88914.31	0.2022087	100
88914.42	0.2022438	100
88914.51	0.2022786	100
88914.62	0.202314	100
88914.72	0.2023486	100
88914.82	0.2023844	100
88914.91	0.2024189	100
88915.02	0.2024531	100
88915.12	0.2024897	100
88915.22	0.2025258	100
88915.31	0.2025593	100
88915.42	0.2025921	100
88915.51	0.2026278	100
88915.62	0.2026614	100
88915.72	0.202697	100
88915.82	0.2027313	100
88915.91	0.2027656	100
88916.02	0.2027996	100
88916.12	0.2028343	100
88916.22	0.2028703	100
88916.31	0.202905	100
88916.42	0.2029391	100
88916.51	0.2029742	100
88916.62	0.203008	100
88916.72	0.2030432	100
88916.82	0.2030771	100
88916.91	0.2031112	100
88917.02	0.2031431	100
88917.12	0.2031786	100
88917.22	0.2032137	100
88917.31	0.2032465	100
88917.42	0.2032793	100
88917.51	0.2033137	100
88917.62	0.2033464	100
88917.72	0.2033814	100
88917.82	0.2034147	100
88917.91	0.2034478	100
88918.02	0.2034819	100
88918.12	0.2035167	100
88918.22	0.2035514	100
88918.31	0.2035839	100
88918.42	0.2036141	100
88918.51	0.2036494	100
88918.62	0.2036834	100
88918.72	0.203717	100
88918.82	0.2037503	100
88918.91	0.2037844	100
88919.02	0.2038162	100
88919.12	0.2038496	100
88919.22	0.2038838	100
88919.31	0.2039149	100
88919.42	0.2039473	100
88919.51	0.2039787	100
88919.62	0.2040141	100
88919.72	0.204047	100
88919.82	0.2040797	100
88919.91	0.2041109	100
88920.02	0.2041444	100
88920.12	0.2041786	100
88920.22	0.2042099	100
88920.31	0.2042397	100
88920.42	0.2042714	100
88920.51	0.2043035	100
88920.62	0.204337	100
88920.72	0.2043696	100
88920.82	0.2043995	100
88920.91	0.2044315	100
88921.02	0.2044623	100
88921.12	0.2044965	100
88921.22	0.2045277	100
88921.31	0.2045606	100
88921.42	0.2045926	100
88921.51	0.2046254	100
88921.62	0.2046569	100
88921.72	0.2046894	100
88921.82	0.2047202	100
88921.91	0.2047514	100
88922.02	0.2047842	100
88922.12	0.2048164	100
88922.22	0.2048474	100
88922.31	0.2048791	100
88922.42	0.2049108	100
88922.51	0.2049416	100
88922.62	0.2049742	100
88922.72	0.2050048	100
88922.82	0.205035	100
88922.91	0.2050663	100
88923.02	0.2050986	100
88923.12	0.2051287	100
88923.22	0.2051607	100
88923.31	0.2051906	100
88923.42	0.2052212	100
88923.51	0.2052534	100
88923.62	0.2052849	100
88923.72	0.205316	100
88923.82	0.2053449	100
88923.91	0.205376	100
88924.02	0.2054092	100
88924.12	0.2054393	100
88924.22	0.2054671	100
88924.31	0.2054989	100
88924.42	0.2055292	100
88924.51	0.2055603	100
88924.62	0.205591	100
88924.72	0.2056203	100
88924.82	0.2056504	100
88924.91	0.2056804	100
88925.02	0.2057131	100
88925.12	0.2057422	100
88925.22	0.2057742	100
88925.31	0.2058039	100
88925.42	0.205834	100
88925.51	0.2058662	100
88925.62	0.205897	100
88925.72	0.2059277	100
88925.82	0.2059573	100
88925.91	0.2059894	100
88926.02	0.2060201	100
88926.12	0.2060524	100
88926.22	0.2060823	100
88926.31	0.2061115	100
88926.42	0.2061416	100
88926.51	0.2061708	100
88926.62	0.2062017	100
88926.72	0.2062307	100
88926.82	0.2062599	100
88926.91	0.2062902	100
88927.02	0.2063194	100
88927.12	0.2063503	100
88927.22	0.2063797	100
88927.31	0.2064092	100
88927.42	0.2064389	100
88927.51	0.2064697	100
88927.62	0.2064986	100
88927.72	0.2065281	100
88927.82	0.2065569	100
88927.91	0.2065879	100
88928.02	0.2066177	100
88928.12	0.206648	100
88928.22	0.2066776	100
88928.31	0.2067061	100
88928.42	0.2067373	100
88928.51	0.2067672	100
88928.62	0.2067954	100
88928.72	0.2068249	100
88928.82	0.2068539	100
88928.91	0.2068841	100
88929.02	0.2069129	100
88929.12	0.2069419	100
88929.22	0.2069707	100
88929.31	0.2070015	100
88929.42	0.2070299	100
88929.51	0.2070612	100
88929.62	0.2070903	100
88929.72	0.2071178	100
88929.82	0.2071479	100
88929.91	0.2071798	100
88930.02	0.207208	100
88930.12	0.207237	100
88930.22	0.207267	100
88930.31	0.2072966	100
88930.42	0.2073266	100
88930.51	0.2073559	100
88930.62	0.2073858	100
88930.72	0.2074134	100
88930.82	0.2074445	100
88930.91	0.2074728	100
88931.02	0.207503	100
88931.12	0.2075306	100
88931.22	0.207559	100
88931.31	0.2075868	100
88931.42	0.2076154	100
88931.51	0.2076441	100
88931.62	0.2076723	100
88931.72	0.2076995	100
88931.82	0.2077279	100
88931.91	0.2077562	100
88932.02	0.2077836	100
88932.12	0.2078118	100
88932.22	0.2078394	100
88932.31	0.2078677	100
88932.42	0.2078953	100
88932.51	0.2079244	100
88932.62	0.2079531	100
88932.72	0.2079806	100
88932.82	0.2080107	100
88932.91	0.2080396	100
88933.02	0.2080692	100
88933.12	0.2080974	100
88933.22	0.2081263	100
88933.31	0.2081552	100
88933.42	0.2081829	100
88933.51	0.2082104	100
88933.62	0.2082393	100
88933.72	0.208267	100
88933.82	0.2082958	100
88933.91	0.2083245	100
88934.02	0.2083523	100
88934.12	0.2083807	100
88934.22	0.2084095	100
88934.31	0.2084382	100
88934.42	0.2084666	100
88934.51	0.2084953	100
88934.62	0.2085226	100
88934.72	0.2085524	100
88934.82	0.2085803	100
88934.91	0.2086113	100
88935.02	0.2086379	100
88935.12	0.2086667	100
88935.22	0.2086941	100
88935.31	0.2087224	100
88935.42	0.2087495	100
88935.51	0.2087783	100
88935.62	0.2088051	100
88935.72	0.2088338	100
88935.82	0.2088617	100
88935.91	0.2088907	100
88936.02	0.2089177	100
88936.12	0.2089464	100
88936.22	0.2089746	100
88936.31	0.2090039	100
88936.42	0.2090324	100
88936.51	0.2090607	100
88936.62	0.2090871	100
88936.72	0.2091184	100
88936.82	0.2091456	100
88936.91	0.2091746	100
88937.02	0.2092007	100
88937.12	0.2092264	100
88937.22	0.2092543	100
88937.31	0.2092827	100
88937.42	0.2093102	100
88937.51	0.2093386	100
88937.62	0.209367	100
88937.72	0.209394	100
88937.82	0.2094212	100
88937.91	0.2094473	100
88938.02	0.2094753	100
88938.12	0.2095036	100
88938.22	0.2095316	100
88938.31	0.2095601	100
88938.42	0.2095878	100
88938.51	0.2096136	100
88938.62	0.2096408	100
88938.72	0.2096697	100
88938.82	0.209698	100
88938.91	0.2097252	100
88939.02	0.2097535	100
88939.12	0.2097806	100
88939.22	0.2098089	100
88939.31	0.2098341	100
88939.42	0.2098588	100
88939.51	0.2098843	100
88939.62	0.2099111	100
88939.72	0.2099386	100
88939.82	0.2099658	100
88939.91	0.2099937	100
88940.02	0.21002	100
88940.12	0.2100507	100
88940.22	0.210077	100
88940.31	0.2101056	100
88940.42	0.2101313	100
88940.51	0.210157	100
88940.62	0.2101851	100
88940.72	0.2102126	100
88940.82	0.2102399	100
88940.91	0.2102649	100
88941.02	0.2102903	100
88941.12	0.2103192	100
88941.22	0.2103427	100
88941.31	0.2103699	100
88941.42	0.2103964	100
88941.51	0.2104222	100
88941.62	0.2104502	100
88941.72	0.2104774	100
88941.82	0.2105047	100
88941.91	0.2105305	100
88942.02	0.2105554	100
88942.12	0.2105803	100
88942.22	0.2106075	100
88942.31	0.2106336	100
88942.42	0.2106615	100
88942.51	0.210689	100
88942.62	0.2107163	100
88942.72	0.2107422	100
88942.82	0.2107662	100
88942.91	0.2107923	100
88943.02	0.2108161	100
88943.12	0.2108417	100
88943.22	0.2108691	100
88943.31	0.2108955	100
88943.42	0.2109191	100
88943.51	0.2109454	100
88943.62	0.2109709	100
88943.72	0.2109963	100
88943.82	0.2110202	100
88943.91	0.2110455	100
88944.02	0.2110729	100
88944.12	0.2110992	100
88944.22	0.2111257	100
88944.31	0.2111518	100
88944.42	0.211178	100
88944.51	0.2112032	100
88944.62	0.2112278	100
88944.72	0.2112541	100
88944.82	0.2112815	100
88944.91	0.211305	100
88945.02	0.2113311	100
88945.12	0.2113576	100
88945.22	0.2113844	100
88945.31	0.2114082	100
88945.42	0.2114348	100
88945.51	0.2114584	100
88945.62	0.2114846	100
88945.72	0.2115097	100
88945.82	0.2115355	100
88945.91	0.2115598	100
88946.02	0.211587	100
88946.12	0.2116111	100
88946.22	0.2116362	100
88946.31	0.2116621	100
88946.42	0.2116846	100
88946.51	0.2117115	100
88946.62	0.2117363	100
88946.72	0.2117622	100
88946.82	0.2117892	100
88946.91	0.2118129	100
88947.02	0.2118374	100
88947.12	0.2118633	100
88947.22	0.211887	100
88947.31	0.2119114	100
88947.42	0.2119374	100
88947.51	0.2119601	100
88947.62	0.2119883	100
88947.72	0.2120124	100
88947.82	0.2120359	100
88947.91	0.2120591	100
88948.02	0.2120844	100
88948.12	0.2121086	100
88948.22	0.2121318	100
88948.31	0.2121575	100
88948.42	0.2121853	100
88948.51	0.2122092	100
88948.62	0.2122347	100
88948.72	0.2122604	100
88948.82	0.2122844	100
88948.91	0.2123072	100
88949.02	0.2123294	100
88949.12	0.2123555	100
88949.22	0.2123817	100
88949.31	0.2124058	100
88949.42	0.2124313	100
88949.51	0.2124559	100
88949.62	0.2124824	100
88949.72	0.2125067	100
88949.82	0.212532	100
88949.91	0.2125564	100
88950.02	0.2125819	100
88950.12	0.2126064	100
88950.22	0.2126332	100
88950.31	0.2126592	100
88950.42	0.2126822	100
88950.51	0.2127046	100
88950.62	0.2127304	100
88950.72	0.2127543	100
88950.82	0.2127766	100
88950.91	0.2128027	100
88951.02	0.2128264	100
88951.12	0.2128521	100
88951.22	0.2128783	100
88951.31	0.2128991	100
88951.42	0.2129232	100
88951.51	0.2129469	100
88951.62	0.2129725	100
88951.72	0.2129985	100
88951.82	0.2130239	100
88951.91	0.2130501	100
88952.02	0.2130761	100
88952.12	0.2131018	100
88952.22	0.2131241	100
88952.31	0.2131494	100
88952.42	0.213173	100
88952.51	0.2131989	100
88952.62	0.2132229	100
88952.72	0.2132494	100
88952.82	0.2132699	100
88952.91	0.2132921	100
88953.02	0.2133159	100
88953.12	0.2133409	100
88953.22	0.2133608	100
88953.31	0.2133829	100
88953.42	0.2134062	100
88953.51	0.2134314	100
88953.62	0.2134564	100
88953.72	0.2134799	100
88953.82	0.2135022	100
88953.91	0.2135231	100
88954.02	0.2135486	100
88954.12	0.2135718	100
88954.22	0.2135943	100
88954.31	0.2136194	100
88954.42	0.2136431	100
88954.51	0.2136701	100
88954.62	0.2136938	100
88954.72	0.2137182	100
88954.82	0.2137408	100
88954.91	0.2137621	100
88955.02	0.2137855	100
88955.12	0.2138105	100
88955.22	0.2138342	100
88955.31	0.213859	100
88955.42	0.2138822	100
88955.51	0.2139076	100
88955.62	0.2139305	100
88955.72	0.213953	100
88955.82	0.2139746	100
88955.91	0.2139978	100
88956.02	0.2140225	100
88956.12	0.2140491	100
88956.22	0.2140727	100
88956.31	0.2140952	100
88956.42	0.2141193	100
88956.51	0.2141423	100
88956.62	0.2141687	100
88956.72	0.2141898	100
88956.82	0.2142137	100
88956.91	0.2142396	100
88957.02	0.2142632	100
88957.12	0.2142892	100
88957.22	0.2143132	100
88957.31	0.2143332	100
88957.42	0.2143568	100
88957.51	0.214378	100
88957.62	0.2144015	100
88957.72	0.2144255	100
88957.82	0.2144477	100
88957.91	0.2144706	100
88958.02	0.2144954	100
88958.12	0.2145166	100
88958.22	0.2145386	100
88958.31	0.2145585	100
88958.42	0.2145821	100
88958.51	0.2146051	100
88958.62	0.2146293	100
88958.72	0.214653	100
88958.82	0.2146773	100
88958.91	0.2147007	100
88959.02	0.2147243	100
88959.12	0.2147472	100
88959.22	0.2147705	100
88959.31	0.2147927	100
88959.42	0.2148174	100
88959.51	0.2148429	100
88959.62	0.2148663	100
88959.72	0.2148906	100
88959.82	0.2149153	100
88959.91	0.2149362	100
88960.02	0.2149579	100
88960.12	0.2149806	100
88960.22	0.2150028	100
88960.31	0.2150259	100
88960.42	0.2150494	100
88960.51	0.2150743	100
88960.62	0.2150967	100
88960.72	0.2151199	100
88960.82	0.2151425	100
88960.91	0.2151658	100
88961.02	0.2151874	100
88961.12	0.2152107	100
88961.22	0.2152334	100
88961.31	0.2152564	100
88961.42	0.2152805	100
88961.51	0.2153024	100
88961.62	0.2153251	100
88961.72	0.2153465	100
88961.82	0.2153706	100
88961.91	0.2153934	100
88962.02	0.2154156	100
88962.12	0.2154387	100
88962.22	0.2154622	100
88962.31	0.2154872	100
88962.42	0.2155063	100
88962.51	0.2155286	100
88962.62	0.2155487	100
88962.72	0.2155707	100
88962.82	0.2155925	100
88962.91	0.2156165	100
88963.02	0.2156385	100
88963.12	0.2156611	100
88963.22	0.215683	100
88963.31	0.2157067	100
88963.42	0.2157291	100
88963.51	0.2157503	100
88963.62	0.2157719	100
88963.72	0.2157939	100
88963.82	0.2158168	100
88963.91	0.2158398	100
88964.02	0.2158618	100
88964.12	0.2158847	100
88964.22	0.215907	100
88964.31	0.2159293	100
88964.42	0.2159512	100
88964.51	0.2159739	100
88964.62	0.2159979	100
88964.72	0.2160206	100
88964.82	0.2160416	100
88964.91	0.2160659	100
88965.02	0.2160858	100
88965.12	0.2161078	100
88965.22	0.2161299	100
88965.31	0.2161512	100
88965.42	0.2161743	100
88965.51	0.216196	100
88965.62	0.2162172	100
88965.72	0.2162392	100
88965.82	0.2162614	100
88965.91	0.2162841	100
88966.02	0.216306	100
88966.12	0.2163278	100
88966.22	0.2163517	100
88966.31	0.2163743	100
88966.42	0.216398	100
88966.51	0.2164185	100
88966.62	0.2164431	100
88966.72	0.2164673	100
88966.82	0.216489	100
88966.91	0.2165108	100
88967.02	0.2165349	100
88967.12	0.2165554	100
88967.22	0.2165788	100
88967.31	0.2166038	100
88967.42	0.2166266	100
88967.51	0.2166483	100
88967.62	0.216672	100
88967.72	0.2166948	100
88967.82	0.2167164	100
88967.91	0.2167382	100
88968.02	0.2167614	100
88968.12	0.216785	100
88968.22	0.2168071	100
88968.31	0.2168301	100
88968.42	0.2168495	100
88968.51	0.2168714	100
88968.62	0.2168927	100
88968.72	0.2169159	100
88968.82	0.2169394	100
88968.91	0.2169628	100
88969.02	0.2169873	100
88969.12	0.2170079	100
88969.22	0.2170302	100
88969.31	0.2170529	100
88969.42	0.2170729	100
88969.51	0.2170955	100
88969.62	0.2171171	100
88969.72	0.2171397	100
88969.82	0.2171627	100
88969.91	0.2171832	100
88970.02	0.2172035	100
88970.12	0.2172261	100
88970.22	0.2172475	100
88970.31	0.2172723	100
88970.42	0.2172918	100
88970.51	0.2173146	100
88970.62	0.2173359	100
88970.72	0.2173578	100
88970.82	0.2173786	100
88970.91	0.2173993	100
88971.02	0.2174216	100
88971.12	0.2174425	100
88971.22	0.2174635	100
88971.31	0.2174851	100
88971.42	0.2175069	100
88971.51	0.2175282	100
88971.62	0.2175502	100
88971.72	0.2175718	100
88971.82	0.2175927	100
88971.91	0.2176147	100
88972.02	0.2176348	100
88972.12	0.2176542	100
88972.22	0.2176754	100
88972.31	0.2176965	100
88972.42	0.2177188	100
88972.51	0.2177364	100
88972.62	0.2177567	100
88972.72	0.2177771	100
88972.82	0.2177988	100
88972.91	0.2178187	100
88973.02	0.2178394	100
88973.12	0.2178606	100
88973.22	0.2178817	100
88973.31	0.2179012	100
88973.42	0.2179222	100
88973.51	0.2179427	100
88973.62	0.2179588	100
88973.72	0.2179808	100
88973.82	0.218004	100
88973.91	0.2180244	100
88974.02	0.2180465	100
88974.12	0.2180664	100
88974.22	0.2180884	100
88974.31	0.2181081	100
88974.42	0.2181282	100
88974.51	0.2181504	100
88974.62	0.2181705	100
88974.72	0.2181923	100
88974.82	0.2182141	100
88974.91	0.2182343	100
88975.02	0.2182547	100
88975.12	0.2182751	100
88975.22	0.2182949	100
88975.31	0.2183154	100
88975.42	0.2183369	100
88975.51	0.2183583	100
88975.62	0.218379	100
88975.72	0.2184007	100
88975.82	0.2184216	100
88975.91	0.2184449	100
88976.02	0.2184651	100
88976.12	0.2184834	100
88976.22	0.2185043	100
88976.31	0.2185244	100
88976.42	0.2185443	100
88976.51	0.2185669	100
88976.62	0.2185874	100
88976.72	0.2186083	100
88976.82	0.2186284	100
88976.91	0.2186487	100
88977.02	0.2186685	100
88977.12	0.2186883	100
88977.22	0.2187093	100
88977.31	0.2187302	100
88977.42	0.2187507	100
88977.51	0.2187733	100
88977.62	0.218793	100
88977.72	0.2188127	100
88977.82	0.2188354	100
88977.91	0.2188554	100
88978.02	0.2188743	100
88978.12	0.2188949	100
88978.22	0.2189158	100
88978.31	0.2189379	100
88978.42	0.218957	100
88978.51	0.2189776	100
88978.62	0.2189959	100
88978.72	0.2190168	100
88978.82	0.2190361	100
88978.91	0.2190573	100
88979.02	0.2190761	100
88979.12	0.2190976	100
88979.22	0.2191198	100
88979.31	0.2191392	100
88979.42	0.2191595	100
88979.51	0.2191802	100
88979.62	0.219201	100
88979.72	0.2192216	100
88979.82	0.2192413	100
88979.91	0.2192629	100
88980.02	0.219285	100
88980.12	0.2193064	100
88980.22	0.2193277	100
88980.31	0.2193471	100
88980.42	0.2193676	100
88980.51	0.2193855	100
88980.62	0.2194066	100
88980.72	0.2194247	100
88980.82	0.2194453	100
88980.91	0.2194661	100
88981.02	0.2194847	100
88981.12	0.2195062	100
88981.22	0.2195264	100
88981.31	0.2195461	100
88981.42	0.2195651	100
88981.51	0.2195864	100
88981.62	0.2196049	100
88981.72	0.219625	100
88981.82	0.2196453	100
88981.91	0.2196665	100
88982.02	0.2196855	100
88982.12	0.2197046	100
88982.22	0.2197218	100
88982.31	0.2197432	100
88982.42	0.2197628	100
88982.51	0.2197845	100
88982.62	0.2198027	100
88982.72	0.2198247	100
88982.82	0.2198429	100
88982.91	0.2198637	100
88983.02	0.219882	100
88983.12	0.2199002	100
88983.22	0.2199206	100
88983.31	0.2199412	100
88983.42	0.2199605	100
88983.51	0.2199803	100
88983.62	0.2199991	100
88983.72	0.220019	100
88983.82	0.2200381	100
88983.91	0.2200568	100
88984.02	0.2200761	100
88984.12	0.2200944	100
88984.22	0.2201137	100
88984.31	0.2201337	100
88984.42	0.2201517	100
88984.51	0.220171	100
88984.62	0.2201903	100
88984.72	0.2202073	100
88984.82	0.2202263	100
88984.91	0.220245	100
88985.02	0.2202651	100
88985.12	0.2202828	100
88985.22	0.2203026	100
88985.31	0.2203208	100
88985.42	0.2203418	100
88985.51	0.2203599	100
88985.62	0.2203785	100
88985.72	0.2203969	100
88985.82	0.2204165	100
88985.91	0.2204353	100
88986.02	0.2204533	100
88986.12	0.2204729	100
88986.22	0.220492	100
88986.31	0.2205111	100
88986.42	0.2205304	100
88986.51	0.2205481	100
88986.62	0.2205664	100
88986.72	0.2205861	100
88986.82	0.2206047	100
88986.91	0.2206249	100
88987.02	0.2206428	100
88987.12	0.2206626	100
88987.22	0.2206806	100
88987.31	0.2207004	100
88987.42	0.2207181	100
88987.51	0.2207366	100
88987.62	0.2207557	100
88987.72	0.2207753	100
88987.82	0.220794	100
88987.91	0.2208125	100
88988.02	0.2208305	100
88988.12	0.2208519	100
88988.22	0.2208698	100
88988.31	0.2208897	100
88988.42	0.2209106	100
88988.51	0.2209301	100
88988.62	0.2209493	100
88988.72	0.2209685	100
88988.82	0.2209873	100
88988.91	0.2210066	100
88989.02	0.2210247	100
88989.12	0.2210441	100
88989.22	0.2210633	100
88989.31	0.2210825	100
88989.42	0.2211014	100
88989.51	0.2211197	100
88989.62	0.2211379	100
88989.72	0.2211546	100
88989.82	0.2211738	100
88989.91	0.2211916	100
88990.02	0.2212101	100
88990.12	0.221231	100
88990.22	0.2212493	100
88990.31	0.2212695	100
88990.42	0.2212876	100
88990.51	0.2213064	100
88990.62	0.2213251	100
88990.72	0.2213446	100
88990.82	0.2213632	100
88990.91	0.2213826	100
88991.02	0.2214005	100
88991.12	0.2214192	100
88991.22	0.2214384	100
88991.31	0.2214582	100
88991.42	0.2214759	100
88991.51	0.2214953	100
88991.62	0.2215155	100
88991.72	0.2215335	100
88991.82	0.2215505	100
88991.91	0.2215715	100
88992.02	0.2215897	100
88992.12	0.2216078	100
88992.22	0.221627	100
88992.31	0.2216456	100
88992.42	0.2216645	100
88992.51	0.2216843	100
88992.62	0.2217013	100
88992.72	0.2217212	100
88992.82	0.22174	100
88992.91	0.2217607	100
88993.02	0.2217796	100
88993.12	0.2217971	100
88993.22	0.221817	100
88993.31	0.2218354	100
88993.42	0.2218539	100
88993.51	0.2218731	100
88993.62	0.2218918	100
88993.72	0.2219109	100
88993.82	0.2219286	100
88993.91	0.2219491	100
88994.02	0.2219681	100
88994.12	0.2219853	100
88994.22	0.2220046	100
88994.31	0.2220241	100
88994.42	0.2220435	100
88994.51	0.2220622	100
88994.62	0.2220816	100
88994.72	0.2221011	100
88994.82	0.2221199	100
88994.91	0.2221368	100
88995.02	0.2221551	100
88995.12	0.2221734	100
88995.22	0.222193	100
88995.31	0.2222107	100
88995.42	0.2222298	100
88995.51	0.2222493	100
88995.62	0.2222682	100
88995.72	0.2222869	100
88995.82	0.2223052	100
88995.91	0.2223229	100
88996.02	0.2223423	100
88996.12	0.2223586	100
88996.22	0.2223775	100
88996.31	0.2223965	100
88996.42	0.222415	100
88996.51	0.222434	100
88996.62	0.2224511	100
88996.72	0.2224689	100
88996.82	0.2224876	100
88996.91	0.2225053	100
88997.02	0.2225245	100
88997.12	0.2225428	100
88997.22	0.2225618	100
88997.31	0.2225808	100
88997.42	0.2225983	100
88997.51	0.2226177	100
88997.62	0.2226343	100
88997.72	0.2226539	100
88997.82	0.2226717	100
88997.91	0.2226899	100
88998.02	0.2227097	100
88998.12	0.2227279	100
88998.22	0.2227467	100
88998.31	0.2227662	100
88998.42	0.2227844	100
88998.51	0.2228042	100
88998.62	0.2228194	100
88998.72	0.2228374	100
88998.82	0.2228555	100
88998.91	0.222875	100
88999.02	0.222892	100
88999.12	0.2229102	100
88999.22	0.2229281	100
88999.31	0.2229474	100
88999.42	0.2229642	100
88999.51	0.2229834	100
88999.62	0.2230022	100
88999.72	0.2230201	100
88999.82	0.2230361	100
88999.91	0.2230565	100
89000.02	0.2230748	100
89000.12	0.2230928	100
89000.22	0.2231111	100
89000.31	0.2231294	100
89000.42	0.2231463	100
89000.51	0.2231652	100
89000.62	0.223183	100
89000.72	0.2232008	100
89000.82	0.2232198	100
89000.91	0.2232379	100
89001.02	0.2232568	100
89001.12	0.2232733	100
89001.22	0.223291	100
89001.31	0.2233091	100
89001.42	0.2233275	100
89001.51	0.2233444	100
89001.62	0.2233634	100
89001.72	0.2233809	100
89001.82	0.2234005	100
89001.91	0.2234173	100
89002.02	0.2234349	100
89002.12	0.223452	100
89002.22	0.2234707	100
89002.31	0.2234897	100
89002.42	0.2235079	100
89002.51	0.2235269	100
89002.62	0.223546	100
89002.72	0.2235628	100
89002.82	0.2235805	100
89002.91	0.2235989	100
89003.02	0.2236158	100
89003.12	0.2236338	100
89003.22	0.2236519	100
89003.31	0.2236712	100
89003.42	0.2236908	100
89003.51	0.2237071	100
89003.62	0.2237252	100
89003.72	0.2237426	100
89003.82	0.2237621	100
89003.91	0.2237786	100
89004.02	0.2237961	100
89004.12	0.2238146	100
89004.22	0.2238329	100
89004.31	0.2238513	100
89004.42	0.2238698	100
89004.51	0.2238887	100
89004.62	0.2239059	100
89004.72	0.223924	100
89004.82	0.2239439	100
89004.91	0.2239592	100
89005.02	0.2239763	100
89005.12	0.2239949	100
89005.22	0.2240132	100
89005.31	0.2240312	100
89005.42	0.2240491	100
89005.51	0.2240666	100
89005.62	0.2240848	100
89005.72	0.2241027	100
89005.82	0.224119	100
89005.91	0.2241373	100
89006.02	0.2241548	100
89006.12	0.2241734	100
89006.22	0.224191	100
89006.31	0.22421	100
89006.42	0.2242276	100
89006.51	0.2242434	100
89006.62	0.2242615	100
89006.72	0.2242809	100
89006.82	0.2242981	100
89006.91	0.2243173	100
89007.02	0.2243335	100
89007.12	0.2243518	100
89007.22	0.224368	100
89007.31	0.2243867	100
89007.42	0.2244031	100
89007.51	0.224421	100
89007.62	0.2244391	100
89007.72	0.2244556	100
89007.82	0.224474	100
89007.91	0.2244902	100
89008.02	0.2245061	100
89008.12	0.2245246	100
89008.22	0.2245427	100
89008.31	0.2245605	100
89008.42	0.2245797	100
89008.51	0.2245969	100
89008.62	0.2246145	100
89008.72	0.2246325	100
89008.82	0.2246483	100
89008.91	0.2246671	100
89009.02	0.2246852	100
89009.12	0.2247018	100
89009.22	0.2247186	100
89009.31	0.2247368	100
89009.42	0.2247543	100
89009.51	0.2247719	100
89009.62	0.2247874	100
89009.72	0.2248066	100
89009.82	0.2248225	100
89009.91	0.2248393	100
89010.02	0.224856	100
89010.12	0.2248734	100
89010.22	0.2248916	100
89010.31	0.224908	100
89010.42	0.2249254	100
89010.51	0.2249424	100
89010.62	0.2249603	100
89010.72	0.2249773	100
89010.82	0.2249938	100
89010.91	0.2250101	100
89011.02	0.2250276	100
89011.12	0.2250437	100
89011.22	0.2250613	100
89011.31	0.225078	100
89011.42	0.2250947	100
89011.51	0.2251093	100
89011.62	0.2251267	100
89011.72	0.2251459	100
89011.82	0.2251633	100
89011.91	0.2251793	100
89012.02	0.2251941	100
89012.12	0.2252123	100
89012.22	0.2252277	100
89012.31	0.2252447	100
89012.42	0.2252601	100
89012.51	0.2252776	100
89012.62	0.2252938	100
89012.72	0.2253121	100
89012.82	0.2253267	100
89012.91	0.2253437	100
89013.02	0.2253594	100
89013.12	0.2253753	100
89013.22	0.2253943	100
89013.31	0.2254083	100
89013.42	0.2254259	100
89013.51	0.2254429	100
89013.62	0.2254596	100
89013.72	0.2254779	100
89013.82	0.2254943	100
89013.91	0.2255095	100
89014.02	0.2255287	100
89014.12	0.2255438	100
89014.22	0.2255611	100
89014.31	0.2255772	100
89014.42	0.2255928	100
89014.51	0.2256103	100
89014.62	0.2256262	100
89014.72	0.2256431	100
89014.82	0.2256584	100
89014.91	0.2256739	100
89015.02	0.2256917	100
89015.12	0.225706	100
89015.22	0.2257256	100
89015.31	0.2257403	100
89015.42	0.2257585	100
89015.51	0.2257754	100
89015.62	0.2257905	100
89015.72	0.2258068	100
89015.82	0.2258241	100
89015.91	0.2258387	100
89016.02	0.2258565	100
89016.12	0.2258723	100
89016.22	0.2258891	100
89016.31	0.2259046	100
89016.42	0.2259204	100
89016.51	0.2259372	100
89016.62	0.2259526	100
89016.72	0.2259685	100
89016.82	0.2259826	100
89016.91	0.2259992	100
89017.02	0.226016	100
89017.12	0.2260312	100
89017.22	0.2260459	100
89017.31	0.2260618	100
89017.42	0.2260769	100
89017.51	0.2260951	100
89017.62	0.2261098	100
89017.72	0.2261266	100
89017.82	0.2261412	100
89017.91	0.2261584	100
89018.02	0.2261739	100
89018.12	0.2261897	100
89018.22	0.2262052	100
89018.31	0.2262201	100
89018.42	0.2262365	100
89018.51	0.2262513	100
89018.62	0.2262658	100
89018.72	0.2262807	100
89018.82	0.2262963	100
89018.91	0.2263118	100
89019.02	0.226327	100
89019.12	0.2263416	100
89019.22	0.2263568	100
89019.31	0.2263733	100
89019.42	0.2263894	100
89019.51	0.2264057	100
89019.62	0.2264207	100
89019.72	0.2264358	100
89019.82	0.2264503	100
89019.91	0.2264657	100
89020.02	0.2264811	100
89020.12	0.2264962	100
89020.22	0.2265119	100
89020.31	0.2265297	100
89020.42	0.2265449	100
89020.51	0.2265621	100
89020.62	0.2265773	100
89020.72	0.2265922	100
89020.82	0.2266076	100
89020.91	0.2266215	100
89021.02	0.2266361	100
89021.12	0.2266527	100
89021.22	0.2266671	100
89021.31	0.2266848	100
89021.42	0.2266985	100
89021.51	0.226715	100
89021.62	0.2267297	100
89021.72	0.2267447	100
89021.82	0.2267597	100
89021.91	0.2267758	100
89022.02	0.2267915	100
89022.12	0.2268083	100
89022.22	0.2268236	100
89022.31	0.2268402	100
89022.42	0.2268559	100
89022.51	0.2268713	100
89022.62	0.2268882	100
89022.72	0.2269042	100
89022.82	0.2269206	100
89022.91	0.2269353	100
89023.02	0.2269505	100
89023.12	0.2269644	100
89023.22	0.2269804	100
89023.31	0.2269968	100
89023.42	0.2270113	100
89023.51	0.2270286	100
89023.62	0.2270443	100
89023.72	0.2270609	100
89023.82	0.2270772	100
89023.91	0.2270922	100
89024.02	0.2271104	100
89024.12	0.2271254	100
89024.22	0.227142	100
89024.31	0.227158	100
89024.42	0.2271735	100
89024.51	0.2271896	100
89024.62	0.2272038	100
89024.72	0.2272192	100
89024.82	0.2272352	100
89024.91	0.2272502	100
89025.02	0.2272674	100
89025.12	0.2272829	100
89025.22	0.2272996	100
89025.31	0.2273167	100
89025.42	0.2273322	100
89025.51	0.2273499	100
89025.62	0.2273659	100
89025.72	0.2273812	100
89025.82	0.2273977	100
89025.91	0.2274125	100
89026.02	0.2274296	100
89026.12	0.2274447	100
89026.22	0.2274595	100
89026.31	0.2274763	100
89026.42	0.2274922	100
89026.51	0.2275088	100
89026.62	0.2275232	100
89026.72	0.2275387	100
89026.82	0.2275565	100
89026.91	0.2275707	100
89027.02	0.2275869	100
89027.12	0.2276035	100
89027.22	0.2276201	100
89027.31	0.2276357	100
89027.42	0.2276506	100
89027.51	0.2276657	100
89027.62	0.227682	100
89027.72	0.2276966	100
89027.82	0.2277126	100
89027.91	0.2277283	100
89028.02	0.2277441	100
89028.12	0.2277599	100
89028.22	0.2277748	100
89028.31	0.2277901	100
89028.42	0.2278061	100
89028.51	0.227822	100
89028.62	0.2278375	100
89028.72	0.2278538	100
89028.82	0.2278682	100
89028.91	0.2278848	100
89029.02	0.2278995	100
89029.12	0.2279133	100
89029.22	0.2279284	100
89029.31	0.2279443	100
89029.42	0.2279588	100
89029.51	0.2279758	100
89029.62	0.2279918	100
89029.72	0.2280076	100
89029.82	0.2280217	100
89029.91	0.2280367	100
89030.02	0.2280527	100
89030.12	0.2280684	100
89030.22	0.2280814	100
89030.31	0.2280992	100
89030.42	0.2281146	100
89030.51	0.2281315	100
89030.62	0.2281457	100
89030.72	0.2281606	100
89030.82	0.2281776	100
89030.91	0.2281931	100
89031.02	0.2282098	100
89031.12	0.2282242	100
89031.22	0.2282403	100
89031.31	0.2282554	100
89031.42	0.228271	100
89031.51	0.2282869	100
89031.62	0.2283027	100
89031.72	0.2283174	100
89031.82	0.228332	100
89031.91	0.2283466	100
89032.02	0.2283637	100
89032.12	0.2283777	100
89032.22	0.2283939	100
89032.31	0.2284086	100
89032.42	0.228424	100
89032.51	0.2284412	100
89032.62	0.2284555	100
89032.72	0.2284694	100
89032.82	0.2284847	100
89032.91	0.2285004	100
89033.02	0.2285153	100
89033.12	0.2285305	100
89033.22	0.2285475	100
89033.31	0.2285611	100
89033.42	0.2285763	100
89033.51	0.2285905	100
89033.62	0.228606	100
89033.73	0.2286211	100
89033.82	0.2286369	100
89033.92	0.2286517	100
89034.02	0.2286669	100
89034.13	0.2286822	100
89034.22	0.2286984	100
89034.33	0.2287122	100
89034.42	0.2287263	100
89034.52	0.2287408	100
89034.62	0.2287565	100
89034.73	0.2287711	100
89034.82	0.2287857	100
89034.92	0.2288018	100
89035.02	0.2288166	100
89035.13	0.2288316	100
89035.22	0.2288459	100
89035.33	0.2288603	100
89035.42	0.228875	100
89035.52	0.2288897	100
89035.62	0.2289055	100
89035.73	0.22892	100
89035.82	0.2289363	100
89035.92	0.2289505	100
89036.02	0.2289655	100
89036.13	0.2289812	100
89036.22	0.2289956	100
89036.33	0.2290106	100
89036.42	0.2290253	100
89036.52	0.22904	100
89036.62	0.2290558	100
89036.73	0.2290706	100
89036.82	0.229085	100
89036.92	0.2290995	100
89037.02	0.2291143	100
89037.13	0.2291284	100
89037.22	0.2291421	100
89037.33	0.2291574	100
89037.42	0.2291731	100
89037.52	0.2291869	100
89037.62	0.2292005	100
89037.73	0.2292162	100
89037.82	0.2292301	100
89037.92	0.2292446	100
89038.02	0.2292592	100
89038.13	0.2292751	100
89038.22	0.2292888	100
89038.33	0.2293036	100
89038.42	0.2293176	100
89038.52	0.2293324	100
89038.62	0.2293471	100
89038.73	0.2293616	100
89038.82	0.2293765	100
89038.92	0.2293896	100
89039.02	0.2294046	100
89039.13	0.2294198	100
89039.22	0.2294354	100
89039.33	0.2294514	100
89039.42	0.2294651	100
89039.52	0.2294805	100
89039.62	0.2294946	100
89039.73	0.2295109	100
89039.82	0.2295245	100
89039.92	0.2295386	100
89040.02	0.2295538	100
89040.13	0.2295669	100
89040.22	0.2295804	100
89040.33	0.2295964	100
89040.42	0.2296111	100
89040.52	0.2296251	100
89040.62	0.2296416	100
89040.73	0.2296553	100
89040.82	0.2296717	100
89040.92	0.2296851	100
89041.02	0.2297014	100
89041.13	0.2297154	100
89041.22	0.2297295	100
89041.33	0.2297445	100
89041.42	0.2297603	100
89041.52	0.229773	100
89041.62	0.229788	100
89041.73	0.2298029	100
89041.82	0.2298188	100
89041.92	0.2298319	100
89042.02	0.2298476	100
89042.13	0.2298617	100
89042.22	0.229876	100
89042.33	0.2298912	100
89042.42	0.2299038	100
89042.52	0.2299181	100
89042.62	0.2299333	100
89042.73	0.2299469	100
89042.82	0.2299625	100
89042.92	0.2299769	100
89043.02	0.2299916	100
89043.13	0.2300056	100
89043.22	0.2300206	100
89043.33	0.2300343	100
89043.42	0.2300483	100
89043.52	0.2300613	100
89043.62	0.2300756	100
89043.73	0.2300901	100
89043.82	0.2301046	100
89043.92	0.2301178	100
89044.02	0.2301317	100
89044.13	0.2301463	100
89044.22	0.2301601	100
89044.33	0.2301758	100
89044.42	0.2301904	100
89044.52	0.2302045	100
89044.62	0.2302202	100
89044.73	0.2302344	100
89044.82	0.230249	100
89044.92	0.2302631	100
89045.02	0.2302776	100
89045.13	0.2302924	100
89045.22	0.2303057	100
89045.33	0.2303196	100
89045.42	0.2303347	100
89045.52	0.2303493	100
89045.62	0.2303624	100
89045.73	0.230376	100
89045.82	0.2303907	100
89045.92	0.2304033	100
89046.02	0.2304165	100
89046.13	0.2304311	100
89046.22	0.2304449	100
89046.33	0.2304597	100
89046.42	0.2304738	100
89046.52	0.2304876	100
89046.62	0.2305029	100
89046.73	0.2305169	100
89046.82	0.2305311	100
89046.92	0.2305445	100
89047.02	0.230559	100
89047.13	0.2305724	100
89047.22	0.2305868	100
89047.33	0.2306003	100
89047.42	0.2306147	100
89047.52	0.230628	100
89047.62	0.2306435	100
89047.73	0.2306564	100
89047.82	0.2306707	100
89047.92	0.230685	100
89048.02	0.2306998	100
89048.13	0.2307145	100
89048.22	0.2307268	100
89048.33	0.2307414	100
89048.42	0.2307549	100
89048.52	0.2307691	100
89048.62	0.2307826	100
89048.73	0.2307969	100
89048.82	0.2308105	100
89048.92	0.2308239	100
89049.02	0.2308379	100
89049.13	0.2308527	100
89049.22	0.2308667	100
89049.33	0.2308792	100
89049.42	0.2308933	100
89049.52	0.2309076	100
89049.62	0.2309228	100
89049.73	0.2309344	100
89049.82	0.2309478	100
89049.92	0.2309639	100
89050.02	0.2309777	100
89050.13	0.2309928	100
89050.22	0.2310064	100
89050.33	0.2310206	100
89050.42	0.2310336	100
89050.52	0.231049	100
89050.62	0.2310627	100
89050.73	0.2310768	100
89050.82	0.2310898	100
89050.92	0.2311051	100
89051.02	0.2311184	100
89051.13	0.2311325	100
89051.22	0.2311463	100
89051.33	0.2311604	100
89051.42	0.2311749	100
89051.52	0.2311891	100
89051.62	0.231204	100
89051.73	0.2312187	100
89051.82	0.2312324	100
89051.92	0.2312475	100
89052.02	0.231261	100
89052.13	0.2312767	100
89052.22	0.2312896	100
89052.33	0.231303	100
89052.42	0.2313182	100
89052.52	0.2313315	100
89052.62	0.2313447	100
89052.73	0.2313594	100
89052.82	0.231374	100
89052.92	0.2313886	100
89053.02	0.2314018	100
89053.13	0.2314163	100
89053.22	0.2314309	100
89053.33	0.2314431	100
89053.42	0.2314573	100
89053.52	0.2314717	100
89053.62	0.2314861	100
89053.73	0.231499	100
89053.82	0.231513	100
89053.92	0.231528	100
89054.02	0.2315424	100
89054.13	0.2315566	100
89054.22	0.2315704	100
89054.33	0.2315859	100
89054.42	0.231601	100
89054.52	0.2316149	100
89054.62	0.2316281	100
89054.73	0.2316408	100
89054.82	0.2316567	100
89054.92	0.2316703	100
89055.02	0.231685	100
89055.13	0.2316988	100
89055.22	0.231714	100
89055.33	0.231728	100
89055.42	0.2317421	100
89055.52	0.2317565	100
89055.62	0.2317702	100
89055.73	0.2317843	100
89055.82	0.2317991	100
89055.92	0.2318128	100
89056.02	0.2318267	100
89056.13	0.2318414	100
89056.22	0.2318549	100
89056.33	0.2318696	100
89056.42	0.2318858	100
89056.52	0.2318977	100
89056.62	0.231911	100
89056.73	0.2319253	100
89056.82	0.2319407	100
89056.92	0.2319541	100
89057.02	0.2319684	100
89057.13	0.2319819	100
89057.22	0.2319967	100
89057.33	0.2320107	100
89057.42	0.2320247	100
89057.52	0.2320382	100
89057.62	0.2320523	100
89057.73	0.2320679	100
89057.82	0.2320803	100
89057.92	0.232095	100
89058.02	0.2321075	100
89058.13	0.2321231	100
89058.22	0.2321373	100
89058.33	0.2321504	100
89058.42	0.2321642	100
89058.52	0.2321787	100
89058.62	0.2321919	100
89058.73	0.2322057	100
89058.82	0.2322193	100
89058.92	0.2322354	100
89059.02	0.2322484	100
89059.13	0.2322645	100
89059.22	0.2322797	100
89059.33	0.2322928	100
89059.42	0.2323066	100
89059.52	0.2323196	100
89059.62	0.2323334	100
89059.73	0.2323471	100
89059.82	0.2323611	100
89059.92	0.232377	100
89060.02	0.2323919	100
89060.13	0.2324059	100
89060.22	0.2324202	100
89060.33	0.2324336	100
89060.42	0.2324471	100
89060.52	0.2324599	100
89060.62	0.2324726	100
89060.73	0.232487	100
89060.82	0.2325002	100
89060.92	0.232516	100
89061.02	0.2325285	100
89061.13	0.2325409	100
89061.22	0.2325557	100
89061.33	0.2325693	100
89061.42	0.2325827	100
89061.52	0.2325958	100
89061.62	0.2326097	100
89061.73	0.2326244	100
89061.82	0.2326375	100
89061.92	0.2326511	100
89062.02	0.2326653	100
89062.13	0.2326784	100
89062.22	0.2326928	100
89062.33	0.2327057	100
89062.42	0.2327192	100
89062.52	0.232734	100
89062.62	0.2327474	100
89062.73	0.2327606	100
89062.82	0.2327747	100
89062.92	0.2327862	100
89063.02	0.2328012	100
89063.13	0.2328126	100
89063.22	0.2328279	100
89063.33	0.2328402	100
89063.42	0.2328541	100
89063.52	0.2328664	100
89063.62	0.2328808	100
89063.73	0.2328951	100
89063.82	0.2329081	100
89063.92	0.2329207	100
89064.02	0.2329349	100
89064.13	0.232948	100
89064.22	0.2329621	100
89064.33	0.2329771	100
89064.42	0.2329894	100
89064.52	0.2330029	100
89064.62	0.2330156	100
89064.73	0.23303	100
89064.82	0.2330434	100
89064.92	0.2330566	100
89065.02	0.23307	100
89065.13	0.2330844	100
89065.22	0.2330982	100
89065.33	0.2331126	100
89065.42	0.2331251	100
89065.52	0.2331392	100
89065.62	0.2331531	100
89065.73	0.2331665	100
89065.82	0.2331799	100
89065.92	0.2331942	100
89066.02	0.233207	100
89066.13	0.23322	100
89066.22	0.2332346	100
89066.33	0.2332481	100
89066.42	0.2332608	100
89066.52	0.2332747	100
89066.62	0.2332875	100
89066.73	0.2333011	100
89066.82	0.2333145	100
89066.92	0.2333283	100
89067.02	0.2333421	100
89067.13	0.2333569	100
89067.22	0.2333718	100
89067.33	0.2333843	100
89067.42	0.233397	100
89067.52	0.2334105	100
89067.62	0.2334245	100
89067.73	0.2334383	100
89067.82	0.2334519	100
89067.92	0.2334649	100
89068.02	0.233478	100
89068.13	0.2334915	100
89068.22	0.2335038	100
89068.33	0.2335179	100
89068.42	0.2335293	100
89068.52	0.2335437	100
89068.62	0.2335555	100
89068.73	0.2335696	100
89068.82	0.2335832	100
89068.92	0.2335948	100
89069.02	0.2336073	100
89069.13	0.2336188	100
89069.22	0.2336324	100
89069.33	0.2336464	100
89069.42	0.2336595	100
89069.52	0.2336715	100
89069.62	0.2336842	100
89069.73	0.2336981	100
89069.82	0.2337123	100
89069.92	0.2337244	100
89070.02	0.2337389	100
89070.13	0.2337504	100
89070.22	0.2337646	100
89070.33	0.2337773	100
89070.42	0.2337907	100
89070.52	0.2338029	100
89070.62	0.2338163	100
89070.73	0.2338298	100
89070.82	0.2338426	100
89070.92	0.2338574	100
89071.02	0.2338702	100
89071.13	0.2338829	100
89071.22	0.2338964	100
89071.33	0.2339115	100
89071.42	0.2339237	100
89071.52	0.233937	100
89071.62	0.2339497	100
89071.73	0.2339644	100
89071.82	0.233977	100
89071.92	0.2339888	100
89072.02	0.2340023	100
89072.13	0.2340148	100
89072.22	0.2340299	100
89072.33	0.234042	100
89072.42	0.2340557	100
89072.52	0.2340684	100
89072.62	0.2340829	100
89072.73	0.2340963	100
89072.82	0.2341099	100
89072.92	0.2341213	100
89073.02	0.2341358	100
89073.13	0.2341479	100
89073.22	0.2341625	100
89073.33	0.2341755	100
89073.42	0.2341885	100
89073.52	0.234203	100
89073.62	0.2342141	100
89073.73	0.2342279	100
89073.82	0.2342402	100
89073.92	0.2342529	100
89074.02	0.2342666	100
89074.13	0.2342813	100
89074.22	0.2342946	100
89074.33	0.2343074	100
89074.42	0.2343208	100
89074.52	0.2343339	100
89074.62	0.234347	100
89074.73	0.234359	100
89074.82	0.2343724	100
89074.92	0.2343855	100
89075.02	0.2343976	100
89075.13	0.2344106	100
89075.22	0.2344242	100
89075.33	0.2344373	100
89075.42	0.2344505	100
89075.52	0.234463	100
89075.62	0.2344745	100
89075.73	0.2344882	100
89075.82	0.2345008	100
89075.92	0.2345135	100
89076.02	0.2345269	100
89076.13	0.2345412	100
89076.22	0.2345539	100
89076.33	0.2345659	100
89076.42	0.2345789	100
89076.52	0.2345918	100
89076.62	0.2346044	100
89076.73	0.234618	100
89076.82	0.2346304	100
89076.92	0.2346429	100
89077.02	0.2346569	100
89077.13	0.2346698	100
89077.22	0.2346834	100
89077.33	0.2346955	100
89077.42	0.2347055	100
89077.52	0.2347206	100
89077.62	0.2347328	100
89077.73	0.2347474	100
89077.82	0.2347603	100
89077.92	0.2347732	100
89078.02	0.2347858	100
89078.13	0.2348005	100
89078.22	0.234813	100
89078.33	0.2348252	100
89078.42	0.234836	100
89078.52	0.2348489	100
89078.62	0.2348621	100
89078.73	0.2348747	100
89078.82	0.2348882	100
89078.92	0.2348984	100
89079.02	0.2349104	100
89079.13	0.234924	100
89079.22	0.2349368	100
89079.33	0.2349498	100
89079.42	0.2349616	100
89079.52	0.234976	100
89079.62	0.2349888	100
89079.73	0.2350017	100
89079.82	0.2350148	100
89079.92	0.2350263	100
89080.02	0.2350379	100
89080.13	0.2350511	100
89080.22	0.2350639	100
89080.33	0.2350756	100
89080.42	0.2350898	100
89080.52	0.2351025	100
89080.62	0.2351162	100
89080.73	0.2351289	100
89080.82	0.2351426	100
89080.92	0.2351548	100
89081.02	0.235167	100
89081.13	0.2351802	100
89081.22	0.2351914	100
89081.33	0.2352055	100
89081.42	0.2352173	100
89081.52	0.2352315	100
89081.62	0.2352423	100
89081.73	0.2352547	100
89081.82	0.2352686	100
89081.92	0.2352809	100
89082.02	0.2352939	100
89082.13	0.2353058	100
89082.22	0.2353208	100
89082.33	0.2353338	100
89082.42	0.235345	100
89082.52	0.2353561	100
89082.62	0.2353674	100
89082.73	0.2353814	100
89082.82	0.2353928	100
89082.92	0.2354037	100
89083.02	0.235418	100
89083.13	0.2354309	100
89083.22	0.2354445	100
89083.33	0.2354563	100
89083.42	0.2354696	100
89083.52	0.2354822	100
89083.62	0.235496	100
89083.73	0.2355074	100
89083.82	0.2355206	100
89083.92	0.2355356	100
89084.02	0.235549	100
89084.13	0.2355623	100
89084.22	0.2355756	100
89084.33	0.2355901	100
89084.42	0.2356014	100
89084.52	0.2356145	100
89084.62	0.2356275	100
89084.73	0.2356432	100
89084.82	0.2356546	100
89084.92	0.2356684	100
89085.02	0.2356814	100
89085.13	0.2356961	100
89085.22	0.235707	100
89085.33	0.2357206	100
89085.42	0.2357331	100
89085.52	0.2357427	100
89085.62	0.2357581	100
89085.73	0.2357711	100
89085.82	0.2357833	100
89085.92	0.2357967	100
89086.02	0.2358108	100
89086.13	0.2358258	100
89086.22	0.2358357	100
89086.33	0.2358506	100
89086.42	0.2358632	100
89086.52	0.2358761	100
89086.62	0.2358859	100
89086.73	0.2359006	100
89086.82	0.2359138	100
89086.92	0.2359267	100
89087.02	0.2359391	100
89087.13	0.2359539	100
89087.22	0.2359647	100
89087.33	0.235977	100
89087.42	0.2359886	100
89087.52	0.2360009	100
89087.62	0.236015	100
89087.73	0.2360267	100
89087.82	0.23604	100
89087.92	0.2360516	100
89088.02	0.2360651	100
89088.13	0.236077	100
89088.22	0.2360876	100
89088.33	0.2360991	100
89088.42	0.2361125	100
89088.52	0.2361237	100
89088.62	0.236136	100
89088.73	0.2361481	100
89088.82	0.2361627	100
89088.92	0.2361732	100
89089.02	0.2361854	100
89089.13	0.2361979	100
89089.22	0.2362101	100
89089.33	0.2362237	100
89089.42	0.2362351	100
89089.52	0.2362482	100
89089.62	0.2362603	100
89089.73	0.2362739	100
89089.82	0.2362833	100
89089.92	0.2362954	100
89090.02	0.2363084	100
89090.13	0.2363213	100
89090.22	0.2363322	100
89090.33	0.2363441	100
89090.42	0.2363562	100
89090.52	0.2363689	100
89090.62	0.2363802	100
89090.73	0.236391	100
89090.82	0.2364043	100
89090.92	0.2364148	100
89091.02	0.2364287	100
89091.13	0.2364389	100
89091.22	0.2364522	100
89091.33	0.2364631	100
89091.42	0.2364752	100
89091.52	0.2364861	100
89091.62	0.2364984	100
89091.73	0.2365106	100
89091.82	0.236522	100
89091.92	0.2365334	100
89092.02	0.2365458	100
89092.13	0.2365575	100
89092.22	0.2365695	100
89092.33	0.2365812	100
89092.42	0.2365947	100
89092.52	0.2366061	100
89092.62	0.2366174	100
89092.73	0.2366294	100
89092.82	0.2366423	100
89092.92	0.2366529	100
89093.02	0.236666	100
89093.13	0.2366789	100
89093.22	0.2366905	100
89093.33	0.2367028	100
89093.42	0.2367128	100
89093.52	0.2367251	100
89093.62	0.2367375	100
89093.73	0.2367479	100
89093.82	0.2367599	100
89093.92	0.2367737	100
89094.02	0.2367839	100
89094.13	0.2367966	100
89094.22	0.2368098	100
89094.33	0.2368212	100
89094.42	0.2368353	100
89094.52	0.2368461	100
89094.62	0.2368598	100
89094.73	0.2368707	100
89094.82	0.2368844	100
89094.92	0.2368962	100
89095.02	0.2369092	100
89095.13	0.2369215	100
89095.22	0.2369349	100
89095.33	0.2369465	100
89095.42	0.236958	100
89095.52	0.2369694	100
89095.62	0.2369828	100
89095.73	0.2369954	100
89095.82	0.2370088	100
89095.92	0.2370201	100
89096.02	0.2370338	100
89096.13	0.2370458	100
89096.22	0.237058	100
89096.33	0.2370696	100
89096.42	0.2370821	100
89096.52	0.2370944	100
89096.62	0.2371069	100
89096.73	0.2371202	100
89096.82	0.2371325	100
89096.92	0.2371435	100
89097.02	0.237156	100
89097.13	0.2371694	100
89097.22	0.2371835	100
89097.33	0.2371963	100
89097.42	0.2372081	100
89097.52	0.2372204	100
89097.62	0.2372341	100
89097.73	0.2372463	100
89097.82	0.2372576	100
89097.92	0.2372696	100
89098.02	0.2372815	100
89098.13	0.237293	100
89098.22	0.2373063	100
89098.33	0.2373179	100
89098.42	0.2373311	100
89098.52	0.2373443	100
89098.62	0.2373557	100
89098.73	0.237369	100
89098.82	0.2373809	100
89098.92	0.2373932	100
89099.02	0.2374039	100
89099.13	0.2374167	100
89099.23	0.2374297	100
89099.33	0.2374431	100
89099.43	0.2374551	100
89099.52	0.2374676	100
89099.63	0.2374815	100
89099.73	0.2374919	100
89099.83	0.2375047	100
89099.92	0.2375156	100
89100.03	0.2375281	100
89100.13	0.2375408	100
89100.23	0.2375537	100
89100.33	0.2375663	100
89100.43	0.2375799	100
89100.52	0.2375895	100
89100.63	0.2376037	100
89100.73	0.2376148	100
89100.83	0.2376276	100
89100.92	0.2376394	100
89101.03	0.2376521	100
89101.13	0.237665	100
89101.23	0.2376788	100
89101.33	0.2376912	100
89101.43	0.2377031	100
89101.52	0.2377157	100
89101.63	0.2377267	100
89101.73	0.2377408	100
89101.83	0.2377535	100
89101.92	0.2377647	100
89102.03	0.237778	100
89102.13	0.2377909	100
89102.23	0.2378032	100
89102.33	0.2378129	100
89102.43	0.2378262	100
89102.52	0.2378368	100
89102.63	0.2378511	100
89102.73	0.2378619	100
89102.83	0.2378761	100
89102.92	0.2378875	100
89103.03	0.2378995	100
89103.13	0.2379119	100
89103.23	0.2379243	100
89103.33	0.2379358	100
89103.43	0.2379484	100
89103.52	0.2379596	100
89103.63	0.237972	100
89103.73	0.2379833	100
89103.83	0.2379954	100
89103.92	0.238005	100
89104.03	0.2380175	100
89104.13	0.2380309	100
89104.23	0.2380408	100
89104.33	0.2380525	100
89104.43	0.2380642	100
89104.52	0.2380764	100
89104.63	0.2380884	100
89104.73	0.2381011	100
89104.83	0.238112	100
89104.92	0.2381248	100
89105.03	0.2381361	100
89105.13	0.2381483	100
89105.23	0.2381607	100
89105.33	0.2381717	100
89105.43	0.2381841	100
89105.52	0.2381969	100
89105.63	0.2382098	100
89105.73	0.238221	100
89105.83	0.2382325	100
89105.92	0.2382448	100
89106.03	0.2382574	100
89106.13	0.2382692	100
89106.23	0.2382833	100
89106.33	0.2382951	100
89106.43	0.238308	100
89106.52	0.2383186	100
89106.63	0.238331	100
89106.73	0.2383438	100
89106.83	0.2383546	100
89106.92	0.2383656	100
89107.03	0.2383778	100
89107.13	0.2383916	100
89107.23	0.2384019	100
89107.33	0.2384156	100
89107.43	0.2384257	100
89107.52	0.2384388	100
89107.63	0.2384518	100
89107.73	0.2384634	100
89107.83	0.2384747	100
89107.92	0.2384858	100
89108.03	0.2384981	100
89108.13	0.2385115	100
89108.23	0.238525	100
89108.33	0.2385347	100
89108.43	0.2385476	100
89108.52	0.2385595	100
89108.63	0.2385715	100
89108.73	0.2385832	100
89108.83	0.2385939	100
89108.92	0.2386057	100
89109.03	0.238617	100
89109.13	0.2386298	100
89109.23	0.2386407	100
89109.33	0.2386516	100
89109.43	0.2386643	100
89109.52	0.238676	100
89109.63	0.2386899	100
89109.73	0.2387014	100
89109.83	0.2387122	100
89109.92	0.2387264	100
89110.03	0.2387371	100
89110.13	0.2387485	100
89110.23	0.2387625	100
89110.33	0.2387731	100
89110.43	0.238785	100
89110.52	0.2387966	100
89110.63	0.2388077	100
89110.73	0.2388184	100
89110.83	0.2388311	100
89110.92	0.2388424	100
89111.03	0.238854	100
89111.13	0.2388652	100
89111.23	0.2388756	100
89111.33	0.2388868	100
89111.43	0.2388983	100
89111.52	0.2389107	100
89111.63	0.2389231	100
89111.73	0.2389346	100
89111.83	0.2389463	100
89111.92	0.2389584	100
89112.03	0.2389693	100
89112.13	0.2389822	100
89112.23	0.238992	100
89112.33	0.2390046	100
89112.43	0.2390166	100
89112.52	0.239027	100
89112.63	0.2390392	100
89112.73	0.2390492	100
89112.83	0.2390615	100
89112.92	0.2390738	100
89113.03	0.2390847	100
89113.13	0.2390965	100
89113.23	0.2391051	100
89113.33	0.2391176	100
89113.43	0.2391273	100
89113.52	0.2391391	100
89113.63	0.2391519	100
89113.73	0.2391629	100
89113.83	0.2391742	100
89113.92	0.2391857	100
89114.03	0.2391979	100
89114.13	0.2392083	100
89114.23	0.2392207	100
89114.33	0.2392319	100
89114.43	0.2392435	100
89114.52	0.2392552	100
89114.63	0.2392684	100
89114.73	0.2392774	100
89114.83	0.2392889	100
89114.92	0.2393025	100
89115.03	0.2393111	100
89115.13	0.2393236	100
89115.23	0.2393337	100
89115.33	0.2393471	100
89115.43	0.2393577	100
89115.52	0.2393677	100
89115.63	0.2393803	100
89115.73	0.2393915	100
89115.83	0.2394025	100
89115.92	0.239414	100
89116.03	0.2394247	100
89116.13	0.2394366	100
89116.23	0.2394472	100
89116.33	0.2394605	100
89116.43	0.239471	100
89116.52	0.2394825	100
89116.63	0.2394942	100
89116.73	0.2395048	100
89116.83	0.2395163	100
89116.92	0.2395287	100
89117.03	0.2395392	100
89117.13	0.2395508	100
89117.23	0.2395616	100
89117.33	0.2395751	100
89117.43	0.2395858	100
89117.52	0.2395957	100
89117.63	0.2396077	100
89117.73	0.2396207	100
89117.83	0.2396322	100
89117.92	0.239644	100
89118.03	0.239655	100
89118.13	0.2396681	100
89118.23	0.2396787	100
89118.33	0.239691	100
89118.43	0.2397024	100
89118.52	0.2397143	100
89118.63	0.2397263	100
89118.73	0.2397385	100
89118.83	0.23975	100
89118.92	0.2397603	100
89119.03	0.239773	100
89119.13	0.2397836	100
89119.23	0.2397958	100
89119.33	0.2398061	100
89119.43	0.2398193	100
89119.52	0.2398312	100
89119.63	0.2398417	100
89119.73	0.239854	100
89119.83	0.2398647	100
89119.92	0.2398774	100
89120.03	0.2398882	100
89120.13	0.2399002	100
89120.23	0.2399105	100
89120.33	0.2399223	100
89120.43	0.2399323	100
89120.52	0.2399449	100
89120.63	0.2399556	100
89120.73	0.2399669	100
89120.83	0.2399811	100
89120.92	0.2399925	100
89121.03	0.2400041	100
89121.13	0.2400144	100
89121.23	0.2400257	100
89121.33	0.2400382	100
89121.43	0.2400492	100
89121.52	0.2400602	100
89121.63	0.2400714	100
89121.73	0.240081	100
89121.83	0.2400945	100
89121.92	0.2401063	100
89122.03	0.2401156	100
89122.13	0.2401296	100
89122.23	0.2401388	100
89122.33	0.2401525	100
89122.43	0.240163	100
89122.52	0.2401739	100
89122.63	0.2401847	100
89122.73	0.2401984	100
89122.83	0.2402099	100
89122.92	0.2402223	100
89123.03	0.2402333	100
89123.13	0.2402447	100
89123.23	0.2402564	100
89123.33	0.2402674	100
89123.43	0.2402783	100
89123.52	0.2402919	100
89123.63	0.2403039	100
89123.73	0.2403149	100
89123.83	0.2403259	100
89123.92	0.2403364	100
89124.03	0.2403471	100
89124.13	0.2403604	100
89124.23	0.2403718	100
89124.33	0.2403835	100
89124.43	0.2403931	100
89124.52	0.2404059	100
89124.63	0.2404159	100
89124.73	0.2404266	100
89124.83	0.2404379	100
89124.92	0.2404498	100
89125.03	0.2404608	100
89125.13	0.2404716	100
89125.23	0.2404833	100
89125.33	0.2404942	100
89125.43	0.2405058	100
89125.52	0.2405181	100
89125.63	0.2405276	100
89125.73	0.24054	100
89125.83	0.2405513	100
89125.92	0.2405609	100
89126.03	0.2405726	100
89126.13	0.2405833	100
89126.23	0.2405954	100
89126.33	0.2406077	100
89126.43	0.2406165	100
89126.52	0.2406288	100
89126.63	0.2406388	100
89126.73	0.2406496	100
89126.83	0.2406626	100
89126.92	0.2406719	100
89127.03	0.2406837	100
89127.13	0.2406943	100
89127.23	0.2407054	100
89127.33	0.2407162	100
89127.43	0.2407285	100
89127.52	0.24074	100
89127.63	0.2407512	100
89127.73	0.2407617	100
89127.83	0.2407752	100
89127.92	0.2407868	100
89128.03	0.2407982	100
89128.13	0.240809	100
89128.23	0.2408207	100
89128.33	0.2408321	100
89128.43	0.2408425	100
89128.52	0.2408554	100
89128.63	0.2408655	100
89128.73	0.240877	100
89128.83	0.240889	100
89128.92	0.2408994	100
89129.03	0.2409099	100
89129.13	0.2409216	100
89129.23	0.240933	100
89129.33	0.2409429	100
89129.43	0.2409555	100
89129.52	0.2409663	100
89129.63	0.2409779	100
89129.73	0.2409868	100
89129.83	0.240998	100
89129.92	0.2410093	100
89130.03	0.24102	100
89130.13	0.2410305	100
89130.23	0.2410417	100
89130.33	0.2410519	100
89130.43	0.2410635	100
89130.52	0.2410757	100
89130.63	0.2410868	100
89130.73	0.2410988	100
89130.83	0.2411107	100
89130.92	0.2411213	100
89131.03	0.2411336	100
89131.13	0.2411439	100
89131.23	0.2411553	100
89131.33	0.2411661	100
89131.43	0.2411769	100
89131.52	0.2411875	100
89131.63	0.2412005	100
89131.73	0.241211	100
89131.83	0.2412224	100
89131.92	0.2412327	100
89132.03	0.2412435	100
89132.13	0.2412544	100
89132.23	0.241265	100
89132.33	0.2412779	100
89132.43	0.2412865	100
89132.52	0.2412969	100
89132.63	0.241308	100
89132.73	0.2413197	100
89132.83	0.2413307	100
89132.92	0.2413424	100
89133.03	0.2413537	100
89133.13	0.2413656	100
89133.23	0.2413753	100
89133.33	0.2413862	100
89133.43	0.2413972	100
89133.52	0.2414124	100
89133.63	0.2414221	100
89133.73	0.2414345	100
89133.83	0.2414474	100
89133.92	0.2414593	100
89134.03	0.2414708	100
89134.13	0.2414825	100
89134.23	0.2414927	100
89134.33	0.241505	100
89134.43	0.2415158	100
89134.52	0.241528	100
89134.63	0.2415383	100
89134.73	0.2415499	100
89134.83	0.2415623	100
89134.92	0.2415716	100
89135.03	0.2415853	100
89135.13	0.2415977	100
89135.23	0.2416079	100
89135.33	0.2416201	100
89135.43	0.2416313	100
89135.52	0.2416432	100
89135.63	0.2416533	100
89135.73	0.2416618	100
89135.83	0.2416748	100
89135.92	0.2416859	100
89136.03	0.241697	100
89136.13	0.2417074	100
89136.23	0.2417189	100
89136.33	0.2417318	100
89136.43	0.241743	100
89136.52	0.2417536	100
89136.63	0.2417631	100
89136.73	0.2417752	100
89136.83	0.2417874	100
89136.92	0.241797	100
89137.03	0.2418088	100
89137.13	0.2418216	100
89137.23	0.241831	100
89137.33	0.2418412	100
89137.43	0.2418523	100
89137.52	0.2418622	100
89137.63	0.2418726	100
89137.73	0.2418841	100
89137.83	0.2418949	100
89137.92	0.2419055	100
89138.03	0.241916	100
89138.13	0.2419259	100
89138.23	0.2419394	100
89138.33	0.241951	100
89138.43	0.2419618	100
89138.52	0.2419721	100
89138.63	0.2419836	100
89138.73	0.2419946	100
89138.83	0.2420058	100
89138.92	0.2420164	100
89139.03	0.2420288	100
89139.13	0.2420385	100
89139.23	0.2420508	100
89139.33	0.2420615	100
89139.43	0.2420719	100
89139.52	0.2420839	100
89139.63	0.2420942	100
89139.73	0.2421048	100
89139.83	0.2421151	100
89139.92	0.2421274	100
89140.03	0.2421378	100
89140.13	0.2421484	100
89140.23	0.2421587	100
89140.33	0.2421701	100
89140.43	0.2421793	100
89140.52	0.2421915	100
89140.63	0.2422016	100
89140.73	0.2422121	100
89140.83	0.2422242	100
89140.92	0.2422344	100
89141.03	0.2422436	100
89141.13	0.242254	100
89141.23	0.2422662	100
89141.33	0.2422765	100
89141.43	0.242288	100
89141.52	0.2422976	100
89141.63	0.2423082	100
89141.73	0.2423206	100
89141.83	0.2423324	100
89141.92	0.2423418	100
89142.03	0.2423521	100
89142.13	0.2423615	100
89142.23	0.2423738	100
89142.33	0.2423842	100
89142.43	0.2423952	100
89142.52	0.2424044	100
89142.63	0.2424167	100
89142.73	0.2424277	100
89142.83	0.2424387	100
89142.92	0.2424479	100
89143.03	0.2424579	100
89143.13	0.2424674	100
89143.23	0.2424798	100
89143.33	0.2424901	100
89143.43	0.2425001	100
89143.52	0.2425102	100
89143.63	0.2425216	100
89143.73	0.2425314	100
89143.83	0.2425421	100
89143.92	0.242551	100
89144.03	0.2425607	100
89144.13	0.242571	100
89144.23	0.2425838	100
89144.33	0.2425937	100
89144.43	0.2426055	100
89144.52	0.2426151	100
89144.63	0.2426256	100
89144.73	0.2426361	100
89144.83	0.2426473	100
89144.92	0.2426577	100
89145.03	0.2426693	100
89145.13	0.2426813	100
89145.23	0.2426919	100
89145.33	0.2427047	100
89145.43	0.2427147	100
89145.52	0.2427267	100
89145.63	0.2427353	100
89145.73	0.2427483	100
89145.83	0.2427606	100
89145.92	0.242769	100
89146.03	0.2427815	100
89146.13	0.2427906	100
89146.23	0.242804	100
89146.33	0.242814	100
89146.43	0.2428245	100
89146.52	0.2428341	100
89146.63	0.2428459	100
89146.73	0.2428569	100
89146.83	0.2428661	100
89146.92	0.2428752	100
89147.03	0.2428861	100
89147.13	0.2428972	100
89147.23	0.2429082	100
89147.33	0.2429175	100
89147.43	0.242927	100
89147.52	0.2429372	100
89147.63	0.2429502	100
89147.73	0.2429619	100
89147.83	0.2429725	100
89147.92	0.2429824	100
89148.03	0.2429922	100
89148.13	0.2430055	100
89148.23	0.2430156	100
89148.33	0.2430264	100
89148.43	0.2430378	100
89148.52	0.2430504	100
89148.63	0.2430602	100
89148.73	0.2430714	100
89148.83	0.2430814	100
89148.92	0.2430939	100
89149.03	0.2431042	100
89149.13	0.2431162	100
89149.23	0.2431266	100
89149.33	0.2431375	100
89149.43	0.2431476	100
89149.52	0.2431576	100
89149.63	0.2431704	100
89149.73	0.2431809	100
89149.83	0.2431913	100
89149.92	0.2432042	100
89150.03	0.2432128	100
89150.13	0.2432248	100
89150.23	0.2432327	100
89150.33	0.2432422	100
89150.43	0.2432545	100
89150.52	0.243265	100
89150.63	0.2432757	100
89150.73	0.2432859	100
89150.83	0.2432983	100
89150.92	0.243308	100
89151.03	0.2433197	100
89151.13	0.2433284	100
89151.23	0.2433389	100
89151.33	0.2433476	100
89151.43	0.2433592	100
89151.52	0.2433673	100
89151.63	0.2433806	100
89151.73	0.2433927	100
89151.83	0.2434013	100
89151.92	0.2434121	100
89152.03	0.2434243	100
89152.13	0.2434344	100
89152.23	0.2434436	100
89152.33	0.2434517	100
89152.43	0.2434642	100
89152.52	0.2434749	100
89152.63	0.243486	100
89152.73	0.2434962	100
89152.83	0.2435053	100
89152.92	0.2435158	100
89153.03	0.243528	100
89153.13	0.2435399	100
89153.23	0.2435508	100
89153.33	0.2435597	100
89153.43	0.2435705	100
89153.52	0.2435832	100
89153.63	0.2435939	100
89153.73	0.2436038	100
89153.83	0.2436106	100
89153.92	0.243622	100
89154.03	0.2436326	100
89154.13	0.2436434	100
89154.23	0.2436534	100
89154.33	0.2436611	100
89154.43	0.2436733	100
89154.52	0.2436844	100
89154.63	0.243695	100
89154.73	0.2437035	100
89154.83	0.243712	100
89154.92	0.2437237	100
89155.03	0.243735	100
89155.13	0.2437452	100
89155.23	0.2437544	100
89155.33	0.2437618	100
89155.43	0.2437747	100
89155.52	0.2437864	100
89155.63	0.2437965	100
89155.73	0.2438043	100
89155.83	0.2438129	100
89155.92	0.2438254	100
89156.03	0.2438374	100
89156.13	0.2438491	100
89156.23	0.2438566	100
89156.33	0.2438667	100
89156.43	0.2438781	100
89156.52	0.2438892	100
89156.63	0.2438979	100
89156.73	0.2439052	100
89156.83	0.2439168	100
89156.92	0.2439284	100
89157.03	0.2439385	100
89157.13	0.2439471	100
89157.23	0.2439575	100
89157.33	0.2439695	100
89157.43	0.2439817	100
89157.52	0.2439918	100
89157.63	0.2440003	100
89157.73	0.2440123	100
89157.83	0.2440225	100
89157.92	0.2440347	100
89158.03	0.244045	100
89158.13	0.2440544	100
89158.23	0.2440643	100
89158.33	0.2440735	100
89158.43	0.2440844	100
89158.52	0.2440962	100
89158.63	0.2441059	100
89158.73	0.2441141	100
89158.83	0.2441254	100
89158.92	0.2441376	100
89159.03	0.2441476	100
89159.13	0.2441586	100
89159.23	0.244167	100
89159.33	0.2441782	100
89159.43	0.2441894	100
89159.52	0.2441991	100
89159.63	0.2442082	100
89159.73	0.2442195	100
89159.83	0.2442287	100
89159.92	0.2442401	100
89160.03	0.2442501	100
89160.13	0.2442589	100
89160.23	0.2442706	100
89160.33	0.244283	100
89160.43	0.244293	100
89160.52	0.244304	100
89160.63	0.2443149	100
89160.73	0.2443254	100
89160.83	0.2443367	100
89160.92	0.2443501	100
89161.03	0.2443594	100
89161.13	0.2443687	100
89161.23	0.2443779	100
89161.33	0.2443922	100
89161.43	0.2444042	100
89161.52	0.2444133	100
89161.63	0.2444264	100
89161.73	0.2444409	100
89161.83	0.2444511	100
89161.92	0.2444614	100
89162.03	0.2444718	100
89162.13	0.244482	100
89162.23	0.2444927	100
89162.33	0.2445019	100
89162.43	0.2445113	100
89162.52	0.244522	100
89162.63	0.2445351	100
89162.73	0.244544	100
89162.83	0.2445557	100
89162.92	0.2445656	100
89163.03	0.2445768	100
89163.13	0.2445849	100
89163.23	0.2445969	100
89163.33	0.2446101	100
89163.43	0.24462	100
89163.52	0.2446305	100
89163.63	0.2446411	100
89163.73	0.2446501	100
89163.83	0.2446623	100
89163.92	0.2446692	100
89164.03	0.2446807	100
89164.13	0.2446936	100
89164.23	0.2447034	100
89164.33	0.2447157	100
89164.43	0.2447259	100
89164.52	0.2447359	100
89164.63	0.2447477	100
89164.73	0.2447569	100
89164.83	0.2447656	100
89164.92	0.2447787	100
89165.03	0.2447915	100
89165.13	0.2448022	100
89165.23	0.2448111	100
89165.34	0.2448226	100
89165.43	0.244831	100
89165.53	0.2448427	100
89165.63	0.2448514	100
89165.73	0.2448626	100
89165.83	0.2448735	100
89165.93	0.2448848	100
89166.03	0.2448965	100
89166.13	0.2449053	100
89166.23	0.2449146	100
89166.34	0.2449228	100
89166.43	0.2449324	100
89166.53	0.2449451	100
89166.63	0.2449564	100
89166.73	0.2449684	100
89166.83	0.2449793	100
89166.93	0.2449902	100
89167.03	0.2449994	100
89167.13	0.2450093	100
89167.23	0.2450193	100
89167.34	0.2450316	100
89167.43	0.2450432	100
89167.53	0.2450532	100
89167.63	0.245062	100
89167.73	0.2450728	100
89167.83	0.2450825	100
89167.93	0.2450915	100
89168.03	0.2451004	100
89168.13	0.2451085	100
89168.23	0.2451191	100
89168.34	0.24513	100
89168.43	0.2451426	100
89168.53	0.2451511	100
89168.63	0.2451623	100
89168.73	0.2451722	100
89168.83	0.2451802	100
89168.93	0.2451902	100
89169.03	0.2451989	100
89169.13	0.2452068	100
89169.23	0.2452194	100
89169.34	0.2452281	100
89169.43	0.2452407	100
89169.53	0.2452477	100
89169.63	0.2452585	100
89169.73	0.2452683	100
89169.83	0.2452775	100
89169.93	0.2452871	100
89170.03	0.2452991	100
89170.13	0.24531	100
89170.23	0.2453202	100
89170.34	0.2453299	100
89170.43	0.2453425	100
89170.53	0.245351	100
89170.63	0.2453605	100
89170.73	0.2453701	100
89170.83	0.2453805	100
89170.93	0.2453915	100
89171.03	0.2454014	100
89171.13	0.2454136	100
89171.23	0.245424	100
89171.34	0.245436	100
89171.43	0.2454451	100
89171.53	0.2454522	100
89171.63	0.245465	100
89171.73	0.2454764	100
89171.83	0.2454876	100
89171.93	0.2454982	100
89172.03	0.2455085	100
89172.13	0.2455228	100
89172.23	0.2455312	100
89172.34	0.2455398	100
89172.43	0.2455523	100
89172.53	0.2455614	100
89172.63	0.245573	100
89172.73	0.2455827	100
89172.83	0.2455934	100
89172.93	0.245603	100
89173.03	0.2456107	100
89173.13	0.2456215	100
89173.23	0.2456316	100
89173.34	0.2456429	100
89173.43	0.2456537	100
89173.53	0.2456634	100
89173.63	0.2456762	100
89173.73	0.2456866	100
89173.83	0.2456974	100
89173.93	0.2457045	100
89174.03	0.2457127	100
89174.13	0.2457244	100
89174.23	0.2457334	100
89174.34	0.2457437	100
89174.43	0.2457527	100
89174.53	0.2457626	100
89174.63	0.2457728	100
89174.73	0.2457819	100
89174.83	0.2457915	100
89174.93	0.2458006	100
89175.03	0.2458097	100
89175.13	0.2458205	100
89175.23	0.2458306	100
89175.34	0.2458416	100
89175.43	0.2458488	100
89175.53	0.2458594	100
89175.63	0.2458696	100
89175.73	0.2458809	100
89175.83	0.2458898	100
89175.93	0.2458993	100
89176.03	0.2459089	100
89176.13	0.2459207	100
89176.23	0.2459302	100
89176.34	0.2459395	100
89176.43	0.2459482	100
89176.53	0.2459599	100
89176.63	0.2459702	100
89176.73	0.2459791	100
89176.83	0.2459898	100
89176.93	0.2460001	100
89177.03	0.2460097	100
89177.13	0.2460203	100
89177.23	0.2460294	100
89177.34	0.2460371	100
89177.43	0.2460457	100
89177.53	0.2460564	100
89177.63	0.2460689	100
89177.73	0.2460785	100
89177.83	0.2460883	100
89177.93	0.2460981	100
89178.03	0.246109	100
89178.13	0.2461197	100
89178.23	0.2461285	100
89178.34	0.2461367	100
89178.43	0.2461465	100
89178.53	0.2461576	100
89178.63	0.2461674	100
89178.73	0.2461787	100
89178.83	0.2461876	100
89178.93	0.2461967	100
89179.03	0.2462067	100
89179.13	0.246216	100
89179.23	0.2462273	100
89179.34	0.2462363	100
89179.43	0.2462481	100
89179.53	0.2462576	100
89179.63	0.246268	100
89179.73	0.2462775	100
89179.83	0.2462879	100
89179.93	0.2462974	100
89180.03	0.2463074	100
89180.13	0.2463186	100
89180.23	0.2463293	100
89180.34	0.2463367	100
89180.43	0.2463474	100
89180.53	0.2463569	100
89180.63	0.2463686	100
89180.73	0.2463773	100
89180.83	0.246388	100
89180.93	0.2463964	100
89181.03	0.2464078	100
89181.13	0.2464185	100
89181.23	0.2464276	100
89181.34	0.2464369	100
89181.43	0.2464465	100
89181.53	0.2464578	100
89181.63	0.2464687	100
89181.73	0.2464791	100
89181.83	0.246489	100
89181.93	0.2465	100
89182.03	0.2465112	100
89182.13	0.2465236	100
89182.23	0.2465322	100
89182.34	0.2465445	100
89182.43	0.2465547	100
89182.53	0.2465669	100
89182.63	0.2465764	100
89182.73	0.2465862	100
89182.83	0.2465953	100
89182.93	0.2466066	100
89183.03	0.2466171	100
89183.13	0.2466289	100
89183.23	0.2466374	100
89183.34	0.246648	100
89183.43	0.2466605	100
89183.53	0.2466704	100
89183.63	0.2466809	100
89183.73	0.2466917	100
89183.83	0.2467004	100
89183.93	0.2467106	100
89184.03	0.2467211	100
89184.13	0.2467293	100
89184.23	0.2467388	100
89184.34	0.24675	100
89184.43	0.246762	100
89184.53	0.2467741	100
89184.63	0.246785	100
89184.73	0.2467951	100
89184.83	0.2468059	100
89184.93	0.246816	100
89185.03	0.2468266	100
89185.13	0.2468351	100
89185.23	0.2468425	100
89185.34	0.2468533	100
89185.43	0.2468634	100
89185.53	0.2468725	100
89185.63	0.2468814	100
89185.73	0.2468906	100
89185.83	0.2468998	100
89185.93	0.2469097	100
89186.03	0.2469217	100
89186.13	0.2469326	100
89186.23	0.2469427	100
89186.34	0.2469547	100
89186.43	0.2469663	100
89186.53	0.2469753	100
89186.63	0.2469833	100
89186.73	0.2469916	100
89186.83	0.2470032	100
89186.93	0.2470147	100
89187.03	0.2470255	100
89187.13	0.2470322	100
89187.23	0.2470428	100
89187.34	0.247052	100
89187.43	0.2470646	100
89187.53	0.2470763	100
89187.63	0.2470846	100
89187.73	0.2470929	100
89187.83	0.2471054	100
89187.93	0.2471165	100
89188.03	0.2471269	100
89188.13	0.2471339	100
89188.23	0.2471434	100
89188.34	0.2471548	100
89188.43	0.2471661	100
89188.53	0.2471771	100
89188.63	0.2471884	100
89188.73	0.2471989	100
89188.83	0.2472091	100
89188.93	0.2472198	100
89189.03	0.2472303	100
89189.13	0.2472377	100
89189.23	0.247247	100
89189.34	0.2472558	100
89189.43	0.2472689	100
89189.53	0.2472782	100
89189.63	0.2472865	100
89189.73	0.2472978	100
89189.83	0.2473078	100
89189.93	0.247319	100
89190.03	0.2473273	100
89190.13	0.2473371	100
89190.23	0.2473489	100
89190.34	0.2473584	100
89190.43	0.2473697	100
89190.53	0.2473786	100
89190.63	0.2473897	100
89190.73	0.2473981	100
89190.83	0.2474082	100
89190.93	0.2474194	100
89191.03	0.2474302	100
89191.13	0.247438	100
89191.23	0.2474475	100
89191.34	0.2474573	100
89191.43	0.2474664	100
89191.53	0.247474	100
89191.63	0.2474825	100
89191.73	0.2474904	100
89191.83	0.2475006	100
89191.93	0.2475096	100
89192.03	0.2475188	100
89192.13	0.2475264	100
89192.23	0.2475368	100
89192.34	0.2475482	100
89192.43	0.2475571	100
89192.53	0.2475657	100
89192.63	0.2475768	100
89192.73	0.247586	100
89192.83	0.2475961	100
89192.93	0.2476047	100
89193.03	0.2476144	100
89193.13	0.2476234	100
89193.23	0.2476335	100
89193.34	0.2476431	100
89193.43	0.2476515	100
89193.53	0.2476595	100
89193.63	0.2476693	100
89193.73	0.2476784	100
89193.83	0.2476892	100
89193.93	0.2476984	100
89194.03	0.2477078	100
89194.13	0.2477199	100
89194.23	0.2477296	100
89194.34	0.2477404	100
89194.43	0.2477503	100
89194.53	0.2477607	100
89194.63	0.2477712	100
89194.73	0.2477818	100
89194.83	0.2477922	100
89194.93	0.2478028	100
89195.03	0.2478121	100
89195.13	0.247821	100
89195.23	0.2478282	100
89195.34	0.2478417	100
89195.43	0.2478511	100
89195.53	0.2478612	100
89195.63	0.2478703	100
89195.73	0.2478807	100
89195.83	0.2478918	100
89195.93	0.2479	100
89196.03	0.2479081	100
89196.13	0.2479188	100
89196.23	0.2479268	100
89196.34	0.2479379	100
89196.43	0.2479467	100
89196.53	0.2479587	100
89196.63	0.2479676	100
89196.73	0.2479784	100
89196.83	0.247988	100
89196.93	0.247998	100
89197.03	0.2480067	100
89197.13	0.2480168	100
89197.23	0.2480262	100
89197.34	0.2480352	100
89197.43	0.2480445	100
89197.53	0.2480543	100
89197.63	0.2480649	100
89197.73	0.2480749	100
89197.83	0.2480867	100
89197.93	0.2480982	100
89198.03	0.2481069	100
89198.13	0.2481153	100
89198.23	0.2481254	100
89198.34	0.2481318	100
89198.43	0.2481439	100
89198.53	0.248155	100
89198.63	0.2481647	100
89198.73	0.2481747	100
89198.83	0.2481836	100
89198.93	0.2481918	100
89199.03	0.2482024	100
89199.13	0.2482092	100
89199.23	0.2482192	100
89199.34	0.2482299	100
89199.43	0.2482409	100
89199.53	0.2482511	100
89199.63	0.2482627	100
89199.73	0.2482717	100
89199.83	0.2482792	100
89199.93	0.2482888	100
89200.03	0.2482997	100
89200.13	0.2483109	100
89200.23	0.2483206	100
89200.34	0.2483305	100
89200.43	0.2483414	100
89200.53	0.2483504	100
89200.63	0.24836	100
89200.73	0.2483683	100
89200.83	0.2483786	100
89200.93	0.2483882	100
89201.03	0.2483992	100
89201.13	0.2484095	100
89201.23	0.2484181	100
89201.34	0.2484274	100
89201.43	0.2484355	100
89201.53	0.2484446	100
89201.63	0.2484534	100
89201.73	0.2484623	100
89201.83	0.2484708	100
89201.93	0.2484824	100
89202.03	0.2484905	100
89202.13	0.2485001	100
89202.23	0.2485096	100
89202.34	0.2485194	100
89202.43	0.2485285	100
89202.53	0.2485381	100
89202.63	0.2485469	100
89202.73	0.2485589	100
89202.83	0.2485662	100
89202.93	0.2485783	100
89203.03	0.2485862	100
89203.13	0.2485975	100
89203.23	0.248608	100
89203.34	0.2486163	100
89203.43	0.2486252	100
89203.53	0.2486364	100
89203.63	0.2486473	100
89203.73	0.2486565	100
89203.83	0.2486638	100
89203.93	0.2486731	100
89204.03	0.2486822	100
89204.13	0.2486929	100
89204.23	0.2487015	100
89204.34	0.2487119	100
89204.43	0.2487235	100
89204.53	0.2487316	100
89204.63	0.2487412	100
89204.73	0.2487503	100
89204.83	0.2487595	100
89204.93	0.2487677	100
89205.03	0.2487775	100
89205.13	0.2487874	100
89205.23	0.2487962	100
89205.34	0.2488056	100
89205.43	0.248815	100
89205.53	0.2488255	100
89205.63	0.2488356	100
89205.73	0.2488438	100
89205.83	0.2488551	100
89205.93	0.248863	100
89206.03	0.2488755	100
89206.13	0.2488837	100
89206.23	0.2488938	100
89206.34	0.248903	100
89206.43	0.2489141	100
89206.53	0.2489225	100
89206.63	0.2489316	100
89206.73	0.2489429	100
89206.83	0.2489516	100
89206.93	0.248961	100
89207.03	0.2489714	100
89207.13	0.2489816	100
89207.23	0.2489914	100
89207.34	0.2490014	100
89207.43	0.2490111	100
89207.53	0.2490211	100
89207.63	0.2490326	100
89207.73	0.249043	100
89207.83	0.2490507	100
89207.93	0.2490607	100
89208.03	0.2490708	100
89208.13	0.249081	100
89208.23	0.2490912	100
89208.34	0.2491003	100
89208.43	0.2491103	100
89208.53	0.2491205	100
89208.63	0.2491296	100
89208.73	0.2491414	100
89208.83	0.2491515	100
89208.93	0.2491593	100
89209.03	0.2491704	100
89209.13	0.2491811	100
89209.23	0.2491931	100
89209.34	0.2492002	100
89209.43	0.24921	100
89209.53	0.2492192	100
89209.63	0.2492289	100
89209.73	0.2492387	100
89209.83	0.2492452	100
89209.93	0.2492559	100
89210.03	0.249266	100
89210.13	0.2492767	100
89210.23	0.2492865	100
89210.34	0.2492963	100
89210.43	0.2493064	100
89210.53	0.2493169	100
89210.63	0.2493244	100
89210.73	0.2493341	100
89210.83	0.2493421	100
89210.93	0.249351	100
89211.03	0.2493582	100
89211.13	0.2493686	100
89211.23	0.2493774	100
89211.34	0.2493845	100
89211.43	0.2493943	100
89211.53	0.2494041	100
89211.63	0.2494128	100
89211.73	0.2494214	100
89211.83	0.2494299	100
89211.93	0.2494386	100
89212.03	0.2494497	100
89212.13	0.2494605	100
89212.23	0.2494683	100
89212.34	0.2494766	100
89212.43	0.249485	100
89212.53	0.2494932	100
89212.63	0.2495044	100
89212.73	0.2495137	100
89212.83	0.2495262	100
89212.93	0.2495332	100
89213.03	0.2495436	100
89213.13	0.2495551	100
89213.23	0.2495631	100
89213.34	0.2495728	100
89213.43	0.2495805	100
89213.53	0.2495895	100
89213.63	0.2496009	100
89213.73	0.2496086	100
89213.83	0.2496178	100
89213.93	0.2496274	100
89214.03	0.2496357	100
89214.13	0.2496467	100
89214.23	0.2496567	100
89214.34	0.2496653	100
89214.43	0.2496749	100
89214.53	0.2496836	100
89214.63	0.2496944	100
89214.73	0.2497033	100
89214.83	0.2497133	100
89214.93	0.2497218	100
89215.03	0.2497318	100
89215.13	0.2497428	100
89215.23	0.249753	100
89215.34	0.2497602	100
89215.43	0.2497682	100
89215.53	0.2497785	100
89215.63	0.24979	100
89215.73	0.2497988	100
89215.83	0.249808	100
89215.93	0.2498172	100
89216.03	0.2498289	100
89216.13	0.2498381	100
89216.23	0.2498477	100
89216.34	0.2498566	100
89216.43	0.2498652	100
89216.53	0.2498774	100
89216.63	0.249884	100
89216.73	0.2498923	100
89216.83	0.2499013	100
89216.93	0.2499121	100
89217.03	0.2499203	100
89217.13	0.2499306	100
89217.23	0.2499392	100
89217.34	0.2499486	100
89217.43	0.2499579	100
89217.53	0.2499678	100
89217.63	0.2499779	100
89217.73	0.2499873	100
89217.83	0.2499974	100
89217.93	0.2500043	100
89218.03	0.2500156	100
89218.13	0.2500236	100
89218.23	0.2500324	100
89218.34	0.2500396	100
89218.43	0.2500487	100
89218.53	0.2500595	100
89218.63	0.2500697	100
89218.73	0.250079	100
89218.83	0.2500872	100
89218.93	0.2500977	100
89219.03	0.2501065	100
89219.13	0.2501151	100
89219.23	0.2501226	100
89219.34	0.2501309	100
89219.43	0.2501403	100
89219.53	0.250148	100
89219.63	0.2501577	100
89219.73	0.2501667	100
89219.83	0.2501758	100
89219.93	0.2501841	100
89220.03	0.250193	100
89220.13	0.2502034	100
89220.23	0.2502127	100
89220.34	0.2502232	100
89220.43	0.2502342	100
89220.53	0.2502434	100
89220.63	0.2502551	100
89220.73	0.2502629	100
89220.83	0.2502716	100
89220.93	0.250281	100
89221.03	0.25029	100
89221.13	0.2502991	100
89221.23	0.2503069	100
89221.34	0.2503193	100
89221.43	0.2503281	100
89221.53	0.250337	100
89221.63	0.2503465	100
89221.73	0.2503545	100
89221.83	0.2503629	100
89221.93	0.2503708	100
89222.03	0.2503822	100
89222.13	0.2503903	100
89222.23	0.2503982	100
89222.34	0.2504091	100
89222.43	0.2504186	100
89222.53	0.250427	100
89222.63	0.2504381	100
89222.73	0.2504441	100
89222.83	0.2504528	100
89222.93	0.2504628	100
89223.03	0.2504715	100
89223.13	0.250481	100
89223.23	0.2504888	100
89223.34	0.2504986	100
89223.43	0.2505084	100
89223.53	0.2505169	100
89223.63	0.2505281	100
89223.73	0.2505363	100
89223.83	0.2505462	100
89223.93	0.250555	100
89224.03	0.250566	100
89224.13	0.2505752	100
89224.23	0.2505848	100
89224.34	0.2505944	100
89224.43	0.250604	100
89224.53	0.2506125	100
89224.63	0.2506224	100
89224.73	0.2506299	100
89224.83	0.250639	100
89224.93	0.2506502	100
89225.03	0.2506588	100
89225.13	0.2506667	100
89225.23	0.2506756	100
89225.34	0.2506867	100
89225.43	0.2506962	100
89225.53	0.2507049	100
89225.63	0.2507154	100
89225.73	0.250725	100
89225.83	0.2507333	100
89225.93	0.2507426	100
89226.03	0.2507501	100
89226.13	0.2507594	100
89226.23	0.2507673	100
89226.34	0.2507756	100
89226.43	0.2507844	100
89226.53	0.2507925	100
89226.63	0.2507996	100
89226.73	0.2508086	100
89226.83	0.2508159	100
89226.93	0.2508247	100
89227.03	0.2508333	100
89227.13	0.2508407	100
89227.23	0.2508492	100
89227.34	0.2508598	100
89227.43	0.2508669	100
89227.53	0.2508746	100
89227.63	0.2508835	100
89227.73	0.250893	100
89227.83	0.2509011	100
89227.93	0.2509094	100
89228.03	0.2509152	100
89228.13	0.2509254	100
89228.23	0.2509333	100
89228.34	0.2509432	100
89228.43	0.2509505	100
89228.53	0.2509597	100
89228.63	0.250968	100
89228.73	0.2509784	100
89228.83	0.2509846	100
89228.93	0.2509935	100
89229.03	0.2510019	100
89229.13	0.2510115	100
89229.23	0.2510205	100
89229.34	0.2510299	100
89229.43	0.2510397	100
89229.53	0.2510468	100
89229.63	0.2510564	100
89229.73	0.2510679	100
89229.83	0.2510782	100
89229.93	0.2510858	100
89230.03	0.2510933	100
89230.13	0.2511025	100
89230.23	0.2511116	100
89230.34	0.2511193	100
89230.43	0.251129	100
89230.53	0.2511375	100
89230.63	0.2511444	100
89230.73	0.2511545	100
89230.84	0.2511635	100
89230.93	0.2511703	100
89231.04	0.2511795	100
89231.13	0.2511874	100
89231.23	0.2511966	100
89231.34	0.251204	100
89231.44	0.2512126	100
89231.53	0.2512211	100
89231.63	0.2512287	100
89231.73	0.2512391	100
89231.84	0.2512492	100
89231.93	0.2512562	100
89232.04	0.2512661	100
89232.13	0.2512773	100
89232.23	0.2512885	100
89232.34	0.2512964	100
89232.44	0.2513058	100
89232.53	0.2513153	100
89232.63	0.2513243	100
89232.73	0.2513347	100
89232.84	0.2513431	100
89232.93	0.2513522	100
89233.04	0.2513619	100
89233.13	0.251371	100
89233.23	0.2513812	100
89233.34	0.2513901	100
89233.44	0.251399	100
89233.53	0.2514082	100
89233.63	0.2514157	100
89233.73	0.2514259	100
89233.84	0.251435	100
89233.93	0.2514444	100
89234.04	0.251452	100
89234.13	0.2514635	100
89234.23	0.2514721	100
89234.34	0.2514807	100
89234.44	0.2514877	100
89234.53	0.2514981	100
89234.63	0.2515055	100
89234.73	0.2515176	100
89234.84	0.2515258	100
89234.93	0.2515346	100
89235.04	0.2515425	100
89235.13	0.2515521	100
89235.23	0.25156	100
89235.34	0.2515698	100
89235.44	0.2515776	100
89235.53	0.2515859	100
89235.63	0.2515962	100
89235.73	0.2516054	100
89235.84	0.2516142	100
89235.93	0.2516228	100
89236.04	0.2516312	100
89236.13	0.2516413	100
89236.23	0.2516509	100
89236.34	0.2516593	100
89236.44	0.2516678	100
89236.53	0.2516769	100
89236.63	0.2516872	100
89236.73	0.2516951	100
89236.84	0.2517023	100
89236.93	0.2517091	100
89237.04	0.251719	100
89237.13	0.2517283	100
89237.23	0.251737	100
89237.34	0.2517464	100
89237.44	0.2517551	100
89237.53	0.251765	100
89237.63	0.2517741	100
89237.73	0.2517831	100
89237.84	0.2517929	100
89237.93	0.2518019	100
89238.04	0.251811	100
89238.13	0.2518211	100
89238.23	0.2518306	100
89238.34	0.2518401	100
89238.44	0.2518459	100
89238.53	0.251854	100
89238.63	0.2518643	100
89238.73	0.2518724	100
89238.84	0.2518816	100
89238.93	0.2518881	100
89239.04	0.2518993	100
89239.13	0.2519081	100
89239.23	0.2519173	100
89239.34	0.2519249	100
89239.44	0.2519329	100
89239.53	0.2519421	100
89239.63	0.2519514	100
89239.73	0.2519595	100
89239.84	0.251969	100
89239.93	0.2519804	100
89240.04	0.2519872	100
89240.13	0.251997	100
89240.23	0.2520068	100
89240.34	0.252014	100
89240.44	0.2520227	100
89240.53	0.252032	100
89240.63	0.252042	100
89240.73	0.2520523	100
89240.84	0.2520595	100
89240.93	0.2520692	100
89241.04	0.252079	100
89241.13	0.2520879	100
89241.23	0.2520968	100
89241.34	0.2521048	100
89241.44	0.2521133	100
89241.53	0.2521242	100
89241.63	0.2521342	100
89241.73	0.2521433	100
89241.84	0.2521525	100
89241.93	0.2521621	100
89242.04	0.2521711	100
89242.13	0.2521794	100
89242.23	0.2521875	100
89242.34	0.2521979	100
89242.44	0.2522067	100
89242.53	0.2522157	100
89242.63	0.2522254	100
89242.73	0.2522341	100
89242.84	0.252243	100
89242.93	0.2522523	100
89243.04	0.2522607	100
89243.13	0.2522711	100
89243.23	0.2522788	100
89243.34	0.2522885	100
89243.44	0.2522999	100
89243.53	0.252309	100
89243.63	0.2523167	100
89243.73	0.2523251	100
89243.84	0.2523338	100
89243.93	0.252343	100
89244.04	0.2523504	100
89244.13	0.2523622	100
89244.23	0.2523707	100
89244.34	0.2523813	100
89244.44	0.2523913	100
89244.53	0.2523999	100
89244.63	0.2524083	100
89244.73	0.2524153	100
89244.84	0.2524225	100
89244.93	0.2524332	100
89245.04	0.2524425	100
89245.13	0.2524517	100
89245.23	0.2524594	100
89245.34	0.252468	100
89245.44	0.2524779	100
89245.53	0.2524871	100
89245.63	0.2524953	100
89245.73	0.2525035	100
89245.84	0.252513	100
89245.93	0.2525224	100
89246.04	0.2525324	100
89246.13	0.2525402	100
89246.23	0.2525496	100
89246.34	0.2525585	100
89246.44	0.2525672	100
89246.53	0.2525761	100
89246.63	0.2525839	100
89246.73	0.252594	100
89246.84	0.2526022	100
89246.93	0.2526125	100
89247.04	0.2526217	100
89247.13	0.2526307	100
89247.23	0.252638	100
89247.34	0.2526474	100
89247.44	0.2526543	100
89247.53	0.2526647	100
89247.63	0.2526724	100
89247.73	0.2526815	100
89247.84	0.2526905	100
89247.93	0.2527006	100
89248.04	0.2527105	100
89248.13	0.2527178	100
89248.23	0.2527267	100
89248.34	0.2527361	100
89248.44	0.2527444	100
89248.53	0.2527531	100
89248.63	0.2527621	100
89248.73	0.2527709	100
89248.84	0.2527802	100
89248.93	0.25279	100
89249.04	0.2527973	100
89249.13	0.2528059	100
89249.23	0.2528163	100
89249.34	0.2528238	100
89249.44	0.2528328	100
89249.53	0.2528415	100
89249.63	0.2528504	100
89249.73	0.2528581	100
89249.84	0.2528678	100
89249.93	0.2528775	100
89250.04	0.2528846	100
89250.13	0.2528924	100
89250.23	0.2529019	100
89250.34	0.2529101	100
89250.44	0.2529201	100
89250.53	0.2529273	100
89250.63	0.2529356	100
89250.73	0.2529439	100
89250.84	0.2529537	100
89250.93	0.2529639	100
89251.04	0.25297	100
89251.13	0.2529797	100
89251.23	0.2529877	100
89251.34	0.2529993	100
89251.44	0.2530078	100
89251.53	0.2530162	100
89251.63	0.2530236	100
89251.73	0.2530334	100
89251.84	0.2530414	100
89251.93	0.2530489	100
89252.04	0.2530559	100
89252.13	0.2530658	100
89252.23	0.2530752	100
89252.34	0.2530855	100
89252.44	0.2530943	100
89252.53	0.2531033	100
89252.63	0.2531104	100
89252.73	0.2531198	100
89252.84	0.2531285	100
89252.93	0.2531364	100
89253.04	0.2531447	100
89253.13	0.253153	100
89253.23	0.2531619	100
89253.34	0.2531712	100
89253.44	0.2531784	100
89253.53	0.2531854	100
89253.63	0.2531937	100
89253.73	0.2532037	100
89253.84	0.2532134	100
89253.93	0.2532217	100
89254.04	0.2532295	100
89254.13	0.2532383	100
89254.23	0.2532484	100
89254.34	0.2532579	100
89254.44	0.2532665	100
89254.53	0.2532739	100
89254.63	0.253281	100
89254.73	0.2532912	100
89254.84	0.2532996	100
89254.93	0.2533084	100
89255.04	0.2533168	100
89255.13	0.2533269	100
89255.23	0.253336	100
89255.34	0.2533456	100
89255.44	0.2533529	100
89255.53	0.2533607	100
89255.63	0.2533698	100
89255.73	0.2533795	100
89255.84	0.253386	100
89255.93	0.253395	100
89256.04	0.2534041	100
89256.13	0.2534125	100
89256.23	0.2534216	100
89256.34	0.2534301	100
89256.44	0.2534394	100
89256.53	0.2534483	100
89256.63	0.2534567	100
89256.73	0.2534666	100
89256.84	0.2534751	100
89256.93	0.2534832	100
89257.04	0.2534904	100
89257.13	0.2534995	100
89257.23	0.2535076	100
89257.34	0.2535173	100
89257.44	0.2535264	100
89257.53	0.2535333	100
89257.63	0.2535418	100
89257.73	0.2535502	100
89257.84	0.2535603	100
89257.93	0.2535677	100
89258.04	0.2535765	100
89258.13	0.2535846	100
89258.23	0.2535932	100
89258.34	0.2536012	100
89258.44	0.2536094	100
89258.53	0.2536183	100
89258.63	0.2536276	100
89258.73	0.2536352	100
89258.84	0.2536448	100
89258.93	0.2536512	100
89259.04	0.2536609	100
89259.13	0.2536688	100
89259.23	0.2536795	100
89259.34	0.2536856	100
89259.44	0.2536941	100
89259.53	0.2537027	100
89259.63	0.253712	100
89259.73	0.2537195	100
89259.84	0.2537295	100
89259.93	0.2537369	100
89260.04	0.2537458	100
89260.13	0.2537529	100
89260.23	0.253763	100
89260.34	0.2537705	100
89260.44	0.25378	100
89260.53	0.253788	100
89260.63	0.2537976	100
89260.73	0.2538056	100
89260.84	0.2538139	100
89260.93	0.2538218	100
89261.04	0.2538283	100
89261.13	0.2538375	100
89261.23	0.2538465	100
89261.34	0.2538537	100
89261.44	0.2538631	100
89261.53	0.253871	100
89261.63	0.2538796	100
89261.73	0.2538882	100
89261.84	0.253897	100
89261.93	0.2539063	100
89262.04	0.2539135	100
89262.13	0.2539227	100
89262.23	0.2539316	100
89262.34	0.2539405	100
89262.44	0.2539485	100
89262.53	0.2539581	100
89262.63	0.2539669	100
89262.73	0.2539755	100
89262.84	0.2539832	100
89262.93	0.2539917	100
89263.04	0.254001	100
89263.13	0.2540105	100
89263.23	0.2540186	100
89263.34	0.2540274	100
89263.44	0.2540363	100
89263.53	0.2540453	100
89263.63	0.2540544	100
89263.73	0.2540615	100
89263.84	0.2540733	100
89263.93	0.2540829	100
89264.04	0.2540925	100
89264.13	0.2541007	100
89264.23	0.2541087	100
89264.34	0.2541184	100
89264.44	0.2541275	100
89264.53	0.2541373	100
89264.63	0.254145	100
89264.73	0.2541551	100
89264.84	0.2541628	100
89264.93	0.2541719	100
89265.04	0.2541822	100
89265.13	0.2541892	100
89265.23	0.2541991	100
89265.34	0.2542068	100
89265.44	0.2542149	100
89265.53	0.2542223	100
89265.63	0.2542295	100
89265.73	0.25424	100
89265.84	0.2542477	100
89265.93	0.2542581	100
89266.04	0.2542658	100
89266.13	0.2542741	100
89266.23	0.2542816	100
89266.34	0.2542899	100
89266.44	0.2542981	100
89266.53	0.2543064	100
89266.63	0.2543161	100
89266.73	0.2543244	100
89266.84	0.2543333	100
89266.93	0.2543417	100
89267.04	0.2543516	100
89267.13	0.2543612	100
89267.23	0.2543703	100
89267.34	0.2543792	100
89267.44	0.2543893	100
89267.53	0.2543987	100
89267.63	0.2544074	100
89267.73	0.2544164	100
89267.84	0.2544254	100
89267.93	0.2544343	100
89268.04	0.2544416	100
89268.13	0.2544523	100
89268.23	0.2544616	100
89268.34	0.2544718	100
89268.44	0.2544796	100
89268.53	0.2544898	100
89268.63	0.2544976	100
89268.73	0.2545066	100
89268.84	0.254514	100
89268.93	0.2545234	100
89269.04	0.2545315	100
89269.13	0.2545405	100
89269.23	0.2545491	100
89269.34	0.2545568	100
89269.44	0.2545649	100
89269.53	0.2545735	100
89269.63	0.2545815	100
89269.73	0.2545913	100
89269.84	0.2545987	100
89269.93	0.2546076	100
89270.04	0.2546166	100
89270.13	0.2546269	100
89270.23	0.2546345	100
89270.34	0.254644	100
89270.44	0.2546526	100
89270.53	0.2546603	100
89270.63	0.2546688	100
89270.73	0.254678	100
89270.84	0.2546858	100
89270.93	0.2546954	100
89271.04	0.2547035	100
89271.13	0.2547137	100
89271.23	0.254722	100
89271.34	0.2547295	100
89271.44	0.2547387	100
89271.53	0.2547483	100
89271.63	0.254756	100
89271.73	0.2547651	100
89271.84	0.2547736	100
89271.93	0.2547829	100
89272.04	0.2547897	100
89272.13	0.2547992	100
89272.23	0.2548073	100
89272.34	0.2548166	100
89272.44	0.254825	100
89272.53	0.2548335	100
89272.63	0.2548434	100
89272.73	0.2548511	100
89272.84	0.2548595	100
89272.93	0.2548677	100
89273.04	0.2548784	100
89273.13	0.2548861	100
89273.23	0.2548944	100
89273.34	0.2549038	100
89273.44	0.2549127	100
89273.53	0.2549206	100
89273.63	0.2549298	100
89273.73	0.2549385	100
89273.84	0.2549477	100
89273.93	0.2549563	100
89274.04	0.2549665	100
89274.13	0.2549746	100
89274.23	0.2549823	100
89274.34	0.2549916	100
89274.44	0.2550014	100
89274.53	0.2550098	100
89274.63	0.2550184	100
89274.73	0.2550267	100
89274.84	0.2550349	100
89274.93	0.2550441	100
89275.04	0.2550534	100
89275.13	0.2550621	100
89275.23	0.2550708	100
89275.34	0.2550784	100
89275.44	0.2550872	100
89275.53	0.2550959	100
89275.63	0.2551036	100
89275.73	0.2551121	100
89275.84	0.2551201	100
89275.93	0.2551295	100
89276.04	0.2551358	100
89276.13	0.2551442	100
89276.23	0.2551529	100
89276.34	0.2551596	100
89276.44	0.2551685	100
89276.53	0.2551768	100
89276.63	0.2551837	100
89276.73	0.2551935	100
89276.84	0.255201	100
89276.93	0.2552094	100
89277.04	0.2552189	100
89277.13	0.2552259	100
89277.23	0.2552342	100
89277.34	0.2552419	100
89277.44	0.2552502	100
89277.53	0.2552566	100
89277.63	0.2552646	100
89277.73	0.2552729	100
89277.84	0.2552817	100
89277.93	0.2552904	100
89278.04	0.2552976	100
89278.13	0.255308	100
89278.23	0.2553141	100
89278.34	0.2553243	100
89278.44	0.2553317	100
89278.53	0.2553417	100
89278.63	0.2553498	100
89278.73	0.2553585	100
89278.84	0.255369	100
89278.93	0.2553788	100
89279.04	0.2553865	100
89279.13	0.2553947	100
89279.23	0.2554019	100
89279.34	0.2554116	100
89279.44	0.2554193	100
89279.53	0.2554281	100
89279.63	0.2554372	100
89279.73	0.255446	100
89279.84	0.2554544	100
89279.93	0.255463	100
89280.04	0.2554719	100
89280.13	0.2554792	100
89280.23	0.2554887	100
89280.34	0.2554958	100
89280.44	0.2555049	100
89280.53	0.2555142	100
89280.63	0.255523	100
89280.73	0.2555311	100
89280.84	0.2555409	100
89280.93	0.2555484	100
89281.04	0.2555576	100
89281.13	0.2555644	100
89281.23	0.2555722	100
89281.34	0.2555798	100
89281.44	0.2555883	100
89281.53	0.2555978	100
89281.63	0.255606	100
89281.73	0.2556143	100
89281.84	0.2556224	100
89281.93	0.2556322	100
89282.04	0.2556398	100
89282.13	0.2556474	100
89282.23	0.2556575	100
89282.34	0.2556655	100
89282.44	0.2556767	100
89282.53	0.2556851	100
89282.63	0.2556935	100
89282.73	0.2557009	100
89282.84	0.2557098	100
89282.93	0.2557169	100
89283.04	0.255724	100
89283.13	0.2557332	100
89283.23	0.2557425	100
89283.34	0.2557519	100
89283.44	0.2557605	100
89283.53	0.2557704	100
89283.63	0.2557768	100
89283.73	0.2557848	100
89283.84	0.255794	100
89283.93	0.2558019	100
89284.04	0.2558115	100
89284.13	0.2558204	100
89284.23	0.2558286	100
89284.34	0.2558375	100
89284.44	0.2558455	100
89284.53	0.2558536	100
89284.63	0.255861	100
89284.73	0.2558698	100
89284.84	0.2558782	100
89284.93	0.2558871	100
89285.04	0.2558957	100
89285.13	0.2559042	100
89285.23	0.255914	100
89285.34	0.2559221	100
89285.44	0.2559298	100
89285.53	0.2559373	100
89285.63	0.255946	100
89285.73	0.2559558	100
89285.84	0.2559642	100
89285.93	0.255973	100
89286.04	0.2559814	100
89286.13	0.2559892	100
89286.23	0.2559972	100
89286.34	0.2560047	100
89286.44	0.2560131	100
89286.53	0.2560224	100
89286.63	0.2560313	100
89286.73	0.2560416	100
89286.84	0.2560491	100
89286.93	0.2560583	100
89287.04	0.2560649	100
89287.13	0.2560718	100
89287.23	0.2560792	100
89287.34	0.2560868	100
89287.44	0.2560949	100
89287.53	0.2561036	100
89287.63	0.2561114	100
89287.73	0.2561199	100
89287.84	0.2561282	100
89287.93	0.2561355	100
89288.04	0.2561428	100
89288.13	0.2561508	100
89288.23	0.2561593	100
89288.34	0.2561657	100
89288.44	0.2561744	100
89288.53	0.2561832	100
89288.63	0.2561912	100
89288.73	0.2561983	100
89288.84	0.2562078	100
89288.93	0.2562149	100
89289.04	0.2562233	100
89289.13	0.2562317	100
89289.23	0.2562397	100
89289.34	0.2562489	100
89289.44	0.2562571	100
89289.53	0.256265	100
89289.63	0.2562746	100
89289.73	0.2562813	100
89289.84	0.2562892	100
89289.93	0.2562958	100
89290.04	0.2563042	100
89290.13	0.2563129	100
89290.23	0.2563215	100
89290.34	0.2563299	100
89290.44	0.2563383	100
89290.53	0.2563475	100
89290.63	0.2563564	100
89290.73	0.2563652	100
89290.84	0.2563719	100
89290.93	0.2563803	100
89291.04	0.2563898	100
89291.13	0.256398	100
89291.23	0.2564084	100
89291.34	0.256416	100
89291.44	0.2564247	100
89291.53	0.2564332	100
89291.63	0.2564426	100
89291.73	0.2564514	100
89291.84	0.2564601	100
89291.93	0.2564673	100
89292.04	0.2564762	100
89292.13	0.2564831	100
89292.23	0.2564925	100
89292.34	0.2565	100
89292.44	0.2565094	100
89292.53	0.2565178	100
89292.63	0.256527	100
89292.73	0.2565339	100
89292.84	0.2565417	100
89292.93	0.2565506	100
89293.04	0.2565598	100
89293.13	0.2565666	100
89293.23	0.2565764	100
89293.34	0.2565819	100
89293.44	0.2565913	100
89293.53	0.2565992	100
89293.63	0.2566082	100
89293.73	0.2566158	100
89293.84	0.2566251	100
89293.93	0.2566322	100
89294.04	0.2566417	100
89294.13	0.2566511	100
89294.23	0.2566582	100
89294.34	0.2566658	100
89294.44	0.2566734	100
89294.53	0.256682	100
89294.63	0.2566907	100
89294.73	0.2566984	100
89294.84	0.2567071	100
89294.93	0.2567151	100
89295.04	0.2567237	100
89295.13	0.2567328	100
89295.23	0.2567389	100
89295.34	0.256749	100
89295.44	0.2567579	100
89295.53	0.2567666	100
89295.63	0.256774	100
89295.73	0.2567806	100
89295.84	0.256789	100
89295.93	0.2567987	100
89296.04	0.256807	100
89296.13	0.2568159	100
89296.23	0.2568245	100
89296.34	0.2568319	100
89296.44	0.256841	100
89296.54	0.2568508	100
89296.63	0.2568586	100
89296.74	0.2568653	100
89296.84	0.2568741	100
89296.94	0.2568831	100
89297.04	0.2568924	100
89297.14	0.2568989	100
89297.23	0.2569079	100
89297.34	0.2569159	100
89297.44	0.2569253	100
89297.54	0.256934	100
89297.63	0.2569421	100
89297.74	0.2569499	100
89297.84	0.2569586	100
89297.94	0.2569669	100
89298.04	0.2569745	100
89298.14	0.2569831	100
89298.23	0.256991	100
89298.34	0.2569998	100
89298.44	0.2570087	100
89298.54	0.2570159	100
89298.63	0.2570246	100
89298.74	0.2570312	100
89298.84	0.2570398	100
89298.94	0.2570475	100
89299.04	0.2570568	100
89299.14	0.2570625	100
89299.23	0.2570722	100
89299.34	0.2570802	100
89299.44	0.2570879	100
89299.54	0.2570955	100
89299.63	0.2571047	100
89299.74	0.257113	100
89299.84	0.2571213	100
89299.94	0.2571296	100
89300.04	0.2571384	100
89300.14	0.2571458	100
89300.23	0.2571537	100
89300.34	0.2571628	100
89300.44	0.2571707	100
89300.54	0.257179	100
89300.63	0.2571872	100
89300.74	0.2571969	100
89300.84	0.2572048	100
89300.94	0.257215	100
89301.04	0.2572246	100
89301.14	0.2572318	100
89301.23	0.25724	100
89301.34	0.2572476	100
89301.44	0.2572572	100
89301.54	0.2572651	100
89301.63	0.2572738	100
89301.74	0.2572829	100
89301.84	0.2572908	100
89301.94	0.2573003	100
89302.04	0.2573076	100
89302.14	0.2573169	100
89302.23	0.2573253	100
89302.34	0.2573324	100
89302.44	0.2573416	100
89302.54	0.2573498	100
89302.63	0.2573587	100
89302.74	0.2573662	100
89302.84	0.2573755	100
89302.94	0.2573836	100
89303.04	0.2573924	100
89303.14	0.2573987	100
89303.23	0.2574056	100
89303.34	0.2574142	100
89303.44	0.257424	100
89303.54	0.2574329	100
89303.63	0.2574421	100
89303.74	0.2574507	100
89303.84	0.2574587	100
89303.94	0.2574665	100
89304.04	0.257475	100
89304.14	0.257483	100
89304.23	0.2574895	100
89304.34	0.257499	100
89304.44	0.2575081	100
89304.54	0.2575163	100
89304.63	0.2575252	100
89304.74	0.2575325	100
89304.84	0.2575407	100
89304.94	0.2575491	100
89305.04	0.2575561	100
89305.14	0.257564	100
89305.23	0.2575712	100
89305.34	0.2575806	100
89305.44	0.2575888	100
89305.54	0.2575981	100
89305.63	0.2576058	100
89305.74	0.2576149	100
89305.84	0.2576206	100
89305.94	0.2576295	100
89306.04	0.2576377	100
89306.14	0.2576452	100
89306.23	0.2576544	100
89306.34	0.2576629	100
89306.44	0.2576713	100
89306.54	0.2576783	100
89306.63	0.2576855	100
89306.74	0.2576942	100
89306.84	0.2577015	100
89306.94	0.2577096	100
89307.04	0.257718	100
89307.14	0.2577266	100
89307.23	0.2577339	100
89307.34	0.2577419	100
89307.44	0.2577499	100
89307.54	0.2577567	100
89307.63	0.2577629	100
89307.74	0.2577706	100
89307.84	0.2577789	100
89307.94	0.2577877	100
89308.04	0.2577958	100
89308.14	0.2578053	100
89308.23	0.2578135	100
89308.34	0.2578212	100
89308.44	0.2578286	100
89308.54	0.2578367	100
89308.63	0.2578435	100
89308.74	0.2578526	100
89308.84	0.2578615	100
89308.94	0.257868	100
89309.04	0.2578772	100
89309.14	0.2578847	100
89309.23	0.2578941	100
89309.34	0.2579013	100
89309.44	0.2579095	100
89309.54	0.2579174	100
89309.63	0.2579246	100
89309.74	0.2579337	100
89309.84	0.2579413	100
89309.94	0.2579485	100
89310.04	0.2579572	100
89310.14	0.2579659	100
89310.23	0.2579727	100
89310.34	0.2579811	100
89310.44	0.2579879	100
89310.54	0.2579966	100
89310.63	0.2580034	100
89310.74	0.2580125	100
89310.84	0.2580196	100
89310.94	0.2580294	100
89311.04	0.2580365	100
89311.14	0.2580439	100
89311.23	0.2580515	100
89311.34	0.2580596	100
89311.44	0.2580682	100
89311.54	0.258075	100
89311.63	0.2580847	100
89311.74	0.2580926	100
89311.84	0.2581	100
89311.94	0.2581087	100
89312.04	0.2581145	100
89312.14	0.2581228	100
89312.23	0.2581313	100
89312.34	0.2581392	100
89312.44	0.2581468	100
89312.54	0.2581553	100
89312.63	0.2581629	100
89312.74	0.2581718	100
89312.84	0.2581798	100
89312.94	0.258188	100
89313.04	0.2581951	100
89313.14	0.2582042	100
89313.23	0.2582113	100
89313.34	0.2582205	100
89313.44	0.258227	100
89313.54	0.2582338	100
89313.63	0.2582422	100
89313.74	0.258249	100
89313.84	0.2582572	100
89313.94	0.258264	100
89314.04	0.2582731	100
89314.14	0.258281	100
89314.23	0.2582906	100
89314.34	0.258298	100
89314.44	0.2583054	100
89314.54	0.2583131	100
89314.63	0.2583226	100
89314.74	0.2583302	100
89314.84	0.2583382	100
89314.94	0.2583452	100
89315.04	0.2583538	100
89315.14	0.2583612	100
89315.23	0.2583697	100
89315.34	0.2583758	100
89315.44	0.2583851	100
89315.54	0.2583938	100
89315.63	0.2584009	100
89315.74	0.2584084	100
89315.84	0.2584174	100
89315.94	0.2584246	100
89316.04	0.2584332	100
89316.14	0.2584406	100
89316.23	0.2584478	100
89316.34	0.2584546	100
89316.44	0.2584625	100
89316.54	0.2584706	100
89316.63	0.25848	100
89316.74	0.2584871	100
89316.84	0.2584947	100
89316.94	0.2585024	100
89317.04	0.2585106	100
89317.14	0.2585176	100
89317.23	0.2585253	100
89317.34	0.2585328	100
89317.44	0.258541	100
89317.54	0.2585499	100
89317.63	0.2585586	100
89317.74	0.2585673	100
89317.84	0.2585752	100
89317.94	0.2585841	100
89318.04	0.2585898	100
89318.14	0.2585983	100
89318.23	0.2586042	100
89318.34	0.2586146	100
89318.44	0.2586219	100
89318.54	0.2586309	100
89318.63	0.2586375	100
89318.74	0.2586469	100
89318.84	0.258654	100
89318.94	0.258662	100
89319.04	0.2586692	100
89319.14	0.2586756	100
89319.23	0.2586832	100
89319.34	0.2586922	100
89319.44	0.2587013	100
89319.54	0.2587085	100
89319.63	0.2587163	100
89319.74	0.2587254	100
89319.84	0.2587334	100
89319.94	0.2587403	100
89320.04	0.2587472	100
89320.14	0.2587554	100
89320.23	0.2587644	100
89320.34	0.2587726	100
89320.44	0.2587791	100
89320.54	0.2587861	100
89320.63	0.2587944	100
89320.74	0.2588017	100
89320.84	0.2588075	100
89320.94	0.2588154	100
89321.04	0.2588233	100
89321.14	0.2588314	100
89321.23	0.25884	100
89321.34	0.2588476	100
89321.44	0.2588546	100
89321.54	0.2588627	100
89321.63	0.2588729	100
89321.74	0.2588803	100
89321.84	0.2588873	100
89321.94	0.2588974	100
89322.04	0.2589063	100
89322.14	0.2589148	100
89322.23	0.2589248	100
89322.34	0.2589317	100
89322.44	0.2589389	100
89322.54	0.2589463	100
89322.63	0.2589556	100
89322.74	0.2589638	100
89322.84	0.2589713	100
89322.94	0.2589806	100
89323.04	0.2589889	100
89323.14	0.2589974	100
89323.23	0.2590052	100
89323.34	0.2590122	100
89323.44	0.2590205	100
89323.54	0.2590264	100
89323.63	0.259036	100
89323.74	0.2590446	100
89323.84	0.2590533	100
89323.94	0.2590602	100
89324.04	0.2590656	100
89324.14	0.2590748	100
89324.23	0.2590832	100
89324.34	0.2590908	100
89324.44	0.2590986	100
89324.54	0.2591071	100
89324.63	0.2591184	100
89324.74	0.2591255	100
89324.84	0.2591336	100
89324.94	0.2591388	100
89325.04	0.2591474	100
89325.14	0.2591565	100
89325.23	0.2591642	100
89325.34	0.2591734	100
89325.44	0.2591808	100
89325.54	0.2591915	100
89325.63	0.2591997	100
89325.74	0.2592077	100
89325.84	0.259214	100
89325.94	0.2592204	100
89326.04	0.2592283	100
89326.14	0.2592377	100
89326.23	0.2592478	100
89326.34	0.2592568	100
89326.44	0.2592658	100
89326.54	0.2592741	100
89326.63	0.2592829	100
89326.74	0.259291	100
89326.84	0.2592967	100
89326.94	0.2593045	100
89327.04	0.2593137	100
89327.14	0.2593237	100
89327.23	0.2593311	100
89327.34	0.2593392	100
89327.44	0.2593465	100
89327.54	0.2593551	100
89327.63	0.2593605	100
89327.74	0.2593685	100
89327.84	0.259376	100
89327.94	0.259385	100
89328.04	0.2593933	100
89328.14	0.2594048	100
89328.23	0.2594124	100
89328.34	0.2594182	100
89328.44	0.2594253	100
89328.54	0.2594337	100
89328.63	0.2594419	100
89328.74	0.2594494	100
89328.84	0.2594591	100
89328.94	0.259466	100
89329.04	0.2594755	100
89329.14	0.2594842	100
89329.23	0.2594907	100
89329.34	0.2594987	100
89329.44	0.2595055	100
89329.54	0.2595146	100
89329.63	0.2595226	100
89329.74	0.2595309	100
89329.84	0.2595393	100
89329.94	0.2595474	100
89330.04	0.2595548	100
89330.14	0.2595625	100
89330.23	0.2595691	100
89330.34	0.2595768	100
89330.44	0.2595849	100
89330.54	0.2595953	100
89330.63	0.2596051	100
89330.74	0.2596117	100
89330.84	0.25962	100
89330.94	0.2596275	100
89331.04	0.2596332	100
89331.14	0.2596406	100
89331.23	0.259648	100
89331.34	0.2596563	100
89331.44	0.2596652	100
89331.54	0.2596746	100
89331.63	0.2596814	100
89331.74	0.259687	100
89331.84	0.2596935	100
89331.94	0.2597018	100
89332.04	0.2597082	100
89332.14	0.2597179	100
89332.23	0.2597262	100
89332.34	0.259732	100
89332.44	0.2597402	100
89332.54	0.2597482	100
89332.63	0.2597546	100
89332.74	0.2597605	100
89332.84	0.2597697	100
89332.94	0.2597784	100
89333.04	0.2597856	100
89333.14	0.2597912	100
89333.23	0.2598006	100
89333.34	0.2598076	100
89333.44	0.2598157	100
89333.54	0.2598229	100
89333.63	0.2598303	100
89333.74	0.259837	100
89333.84	0.2598462	100
89333.94	0.2598536	100
89334.04	0.2598634	100
89334.14	0.2598709	100
89334.23	0.2598796	100
89334.34	0.2598871	100
89334.44	0.2598967	100
89334.54	0.259903	100
89334.63	0.2599115	100
89334.74	0.259918	100
89334.84	0.2599282	100
89334.94	0.259936	100
89335.04	0.2599451	100
89335.14	0.2599509	100
89335.23	0.259959	100
89335.34	0.2599671	100
89335.44	0.2599742	100
89335.54	0.2599824	100
89335.63	0.25999	100
89335.74	0.2599994	100
89335.84	0.2600077	100
89335.94	0.2600149	100
89336.04	0.2600236	100
89336.14	0.2600306	100
89336.23	0.2600374	100
89336.34	0.2600473	100
89336.44	0.260055	100
89336.54	0.2600624	100
89336.63	0.2600686	100
89336.74	0.2600754	100
89336.84	0.2600834	100
89336.94	0.260091	100
89337.04	0.2600976	100
89337.14	0.260104	100
89337.23	0.2601117	100
89337.34	0.2601209	100
89337.44	0.2601279	100
89337.54	0.2601362	100
89337.63	0.260143	100
89337.74	0.2601505	100
89337.84	0.2601598	100
89337.94	0.2601683	100
89338.04	0.2601757	100
89338.14	0.2601825	100
89338.23	0.2601899	100
89338.34	0.2601987	100
89338.44	0.2602073	100
89338.54	0.2602149	100
89338.63	0.2602228	100
89338.74	0.2602308	100
89338.84	0.2602381	100
89338.94	0.2602466	100
89339.04	0.2602541	100
89339.14	0.2602604	100
89339.23	0.2602688	100
89339.34	0.2602782	100
89339.44	0.260287	100
89339.54	0.2602942	100
89339.63	0.2603011	100
89339.74	0.2603087	100
89339.84	0.2603176	100
89339.94	0.2603257	100
89340.04	0.2603334	100
89340.14	0.2603431	100
89340.23	0.2603524	100
89340.34	0.2603615	100
89340.44	0.2603686	100
89340.54	0.2603759	100
89340.63	0.2603832	100
89340.74	0.2603905	100
89340.84	0.2603985	100
89340.94	0.2604056	100
89341.04	0.260414	100
89341.14	0.2604219	100
89341.23	0.2604307	100
89341.34	0.2604384	100
89341.44	0.2604468	100
89341.54	0.260453	100
89341.63	0.2604611	100
89341.74	0.2604694	100
89341.84	0.2604789	100
89341.94	0.2604852	100
89342.04	0.2604928	100
89342.14	0.2605005	100
89342.23	0.2605077	100
89342.34	0.260515	100
89342.44	0.2605245	100
89342.54	0.2605308	100
89342.63	0.2605419	100
89342.74	0.2605502	100
89342.84	0.2605586	100
89342.94	0.2605647	100
89343.04	0.2605719	100
89343.14	0.26058	100
89343.23	0.2605875	100
89343.34	0.2605965	100
89343.44	0.2606036	100
89343.54	0.2606113	100
89343.63	0.2606181	100
89343.74	0.2606274	100
89343.84	0.260635	100
89343.94	0.2606432	100
89344.04	0.260649	100
89344.14	0.2606577	100
89344.23	0.2606672	100
89344.34	0.2606729	100
89344.44	0.2606801	100
89344.54	0.2606896	100
89344.63	0.2606971	100
89344.74	0.2607059	100
89344.84	0.2607124	100
89344.94	0.2607193	100
89345.04	0.2607266	100
89345.14	0.260735	100
89345.23	0.2607426	100
89345.34	0.260751	100
89345.44	0.2607581	100
89345.54	0.2607637	100
89345.63	0.2607709	100
89345.74	0.2607783	100
89345.84	0.2607863	100
89345.94	0.2607925	100
89346.04	0.2608006	100
89346.14	0.2608097	100
89346.23	0.2608166	100
89346.34	0.260822	100
89346.44	0.2608283	100
89346.54	0.2608363	100
89346.63	0.2608436	100
89346.74	0.2608501	100
89346.84	0.2608602	100
89346.94	0.260868	100
89347.04	0.2608749	100
89347.14	0.2608807	100
89347.23	0.2608885	100
89347.34	0.2608951	100
89347.44	0.2609019	100
89347.54	0.2609089	100
89347.63	0.2609173	100
89347.74	0.2609241	100
89347.84	0.2609321	100
89347.94	0.260938	100
89348.04	0.260946	100
89348.14	0.2609541	100
89348.23	0.2609626	100
89348.34	0.2609679	100
89348.44	0.2609762	100
89348.54	0.2609842	100
89348.63	0.2609918	100
89348.74	0.2609989	100
89348.84	0.2610061	100
89348.94	0.2610115	100
89349.04	0.2610196	100
89349.14	0.261026	100
89349.23	0.2610335	100
89349.34	0.2610404	100
89349.44	0.2610471	100
89349.54	0.2610546	100
89349.63	0.261062	100
89349.74	0.2610694	100
89349.84	0.2610737	100
89349.94	0.2610784	100
89350.04	0.2610846	100
89350.14	0.2610925	100
89350.23	0.2610986	100
89350.34	0.2611051	100
89350.44	0.2611107	100
89350.54	0.2611188	100
89350.63	0.2611243	100
89350.74	0.2611302	100
89350.84	0.2611373	100
89350.94	0.2611432	100
89351.04	0.2611522	100
89351.14	0.2611584	100
89351.23	0.2611654	100
89351.34	0.2611723	100
89351.44	0.2611793	100
89351.54	0.261186	100
89351.63	0.2611928	100
89351.74	0.2612005	100
89351.84	0.2612077	100
89351.94	0.2612149	100
89352.04	0.261225	100
89352.14	0.2612328	100
89352.23	0.2612408	100
89352.34	0.2612463	100
89352.44	0.261254	100
89352.54	0.261261	100
89352.63	0.2612689	100
89352.74	0.2612742	100
89352.84	0.261281	100
89352.94	0.2612886	100
89353.04	0.2612952	100
89353.14	0.2613034	100
89353.23	0.2613091	100
89353.34	0.2613166	100
89353.44	0.2613248	100
89353.54	0.261331	100
89353.63	0.261338	100
89353.74	0.2613463	100
89353.84	0.2613547	100
89353.94	0.2613625	100
89354.04	0.2613688	100
89354.14	0.2613774	100
89354.23	0.2613842	100
89354.34	0.2613918	100
89354.44	0.2614004	100
89354.54	0.2614102	100
89354.63	0.2614181	100
89354.74	0.2614271	100
89354.84	0.2614341	100
89354.94	0.2614427	100
89355.04	0.2614509	100
89355.14	0.2614597	100
89355.23	0.2614682	100
89355.34	0.2614768	100
89355.44	0.2614862	100
89355.54	0.2614943	100
89355.63	0.2615018	100
89355.74	0.2615103	100
89355.84	0.2615188	100
89355.94	0.2615257	100
89356.04	0.261534	100
89356.14	0.2615409	100
89356.23	0.2615494	100
89356.34	0.2615585	100
89356.44	0.2615662	100
89356.54	0.2615751	100
89356.63	0.2615825	100
89356.74	0.2615897	100
89356.84	0.2615979	100
89356.94	0.2616067	100
89357.04	0.2616142	100
89357.14	0.2616243	100
89357.23	0.2616303	100
89357.34	0.2616412	100
89357.44	0.2616492	100
89357.54	0.2616563	100
89357.63	0.2616641	100
89357.74	0.2616707	100
89357.84	0.2616798	100
89357.94	0.2616883	100
89358.04	0.2616974	100
89358.14	0.2617038	100
89358.23	0.2617114	100
89358.34	0.2617192	100
89358.44	0.2617269	100
89358.54	0.2617323	100
89358.63	0.2617404	100
89358.74	0.261748	100
89358.84	0.2617563	100
89358.94	0.2617645	100
89359.04	0.2617713	100
89359.14	0.2617784	100
89359.23	0.2617871	100
89359.34	0.2617944	100
89359.44	0.2618021	100
89359.54	0.2618079	100
89359.63	0.2618162	100
89359.74	0.2618241	100
89359.84	0.261834	100
89359.94	0.2618415	100
89360.04	0.2618477	100
89360.14	0.2618563	100
89360.23	0.2618617	100
89360.34	0.261871	100
89360.44	0.2618781	100
89360.54	0.2618848	100
89360.63	0.2618941	100
89360.74	0.261903	100
89360.84	0.2619093	100
89360.94	0.2619162	100
89361.04	0.2619239	100
89361.14	0.2619311	100
89361.23	0.261937	100
89361.34	0.2619456	100
89361.44	0.261952	100
89361.54	0.2619598	100
89361.63	0.261967	100
89361.74	0.2619776	100
89361.84	0.261985	100
89361.94	0.261993	100
89362.05	0.2619997	100
89362.14	0.2620061	100
89362.23	0.2620148	100
89362.34	0.2620217	100
89362.44	0.2620286	100
89362.54	0.2620362	100
89362.63	0.2620457	100
89362.74	0.2620531	100
89362.84	0.2620595	100
89362.94	0.2620681	100
89363.04	0.262076	100
89363.14	0.2620858	100
89363.23	0.2620934	100
89363.34	0.2621016	100
89363.44	0.2621086	100
89363.54	0.2621155	100
89363.63	0.2621232	100
89363.74	0.2621322	100
89363.84	0.262139	100
89363.94	0.2621467	100
89364.04	0.2621537	100
89364.14	0.2621621	100
89364.23	0.2621706	100
89364.34	0.2621787	100
89364.44	0.2621846	100
89364.54	0.2621915	100
89364.63	0.2621979	100
89364.74	0.2622084	100
89364.84	0.2622155	100
89364.94	0.2622231	100
89365.04	0.2622314	100
89365.14	0.2622379	100
89365.23	0.2622456	100
89365.34	0.2622532	100
89365.44	0.2622624	100
89365.54	0.2622692	100
89365.63	0.2622766	100
89365.74	0.2622832	100
89365.84	0.2622919	100
89365.94	0.2622978	100
89366.04	0.2623034	100
89366.14	0.2623097	100
89366.23	0.2623172	100
89366.34	0.2623245	100
89366.44	0.2623315	100
89366.54	0.2623386	100
89366.63	0.2623462	100
89366.74	0.2623549	100
89366.84	0.2623602	100
89366.94	0.2623663	100
89367.04	0.2623748	100
89367.14	0.2623807	100
89367.23	0.2623879	100
89367.34	0.2623948	100
89367.44	0.2624009	100
89367.54	0.2624107	100
89367.63	0.2624192	100
89367.74	0.2624249	100
89367.84	0.2624347	100
89367.94	0.2624417	100
89368.04	0.2624486	100
89368.14	0.2624558	100
89368.23	0.2624666	100
89368.34	0.262473	100
89368.44	0.2624798	100
89368.54	0.2624865	100
89368.63	0.2624934	100
89368.74	0.2624986	100
89368.84	0.2625047	100
89368.94	0.2625129	100
89369.04	0.2625215	100
89369.14	0.2625307	100
89369.23	0.2625405	100
89369.34	0.2625464	100
89369.44	0.2625551	100
89369.54	0.2625629	100
89369.63	0.2625722	100
89369.74	0.262579	100
89369.84	0.2625903	100
89369.94	0.2625976	100
89370.04	0.2626052	100
89370.14	0.2626138	100
89370.23	0.2626228	100
89370.34	0.26263	100
89370.44	0.2626342	100
89370.54	0.2626431	100
89370.63	0.2626517	100
89370.74	0.2626608	100
89370.84	0.2626679	100
89370.94	0.2626749	100
89371.04	0.2626809	100
89371.14	0.2626879	100
89371.23	0.2626943	100
89371.34	0.2627021	100
89371.44	0.2627087	100
89371.54	0.2627168	100
89371.63	0.2627238	100
89371.74	0.262731	100
89371.84	0.2627388	100
89371.94	0.2627452	100
89372.04	0.2627509	100
89372.14	0.2627598	100
89372.23	0.2627693	100
89372.34	0.2627765	100
89372.44	0.2627837	100
89372.54	0.2627918	100
89372.63	0.2627991	100
89372.74	0.2628032	100
89372.84	0.2628099	100
89372.94	0.262816	100
89373.04	0.2628239	100
89373.14	0.2628306	100
89373.23	0.2628393	100
89373.34	0.2628462	100
89373.44	0.2628528	100
89373.54	0.2628587	100
89373.63	0.2628675	100
89373.74	0.2628725	100
89373.84	0.2628786	100
89373.94	0.2628873	100
89374.04	0.2628947	100
89374.14	0.2629004	100
89374.23	0.2629096	100
89374.34	0.2629145	100
89374.44	0.262921	100
89374.54	0.2629285	100
89374.63	0.2629344	100
89374.74	0.2629434	100
89374.84	0.2629488	100
89374.94	0.2629559	100
89375.04	0.2629635	100
89375.14	0.2629692	100
89375.23	0.2629758	100
89375.34	0.2629816	100
89375.44	0.2629893	100
89375.54	0.2629938	100
89375.63	0.2630028	100
89375.74	0.2630115	100
89375.84	0.263017	100
89375.94	0.263026	100
89376.04	0.2630338	100
89376.14	0.2630405	100
89376.23	0.2630482	100
89376.34	0.2630548	100
89376.44	0.2630607	100
89376.54	0.2630681	100
89376.63	0.2630772	100
89376.74	0.2630833	100
89376.84	0.2630897	100
89376.94	0.2630966	100
89377.04	0.2631051	100
89377.14	0.2631119	100
89377.23	0.2631183	100
89377.34	0.2631264	100
89377.44	0.2631325	100
89377.54	0.2631395	100
89377.63	0.2631482	100
89377.74	0.2631532	100
89377.84	0.2631608	100
89377.94	0.2631673	100
89378.04	0.2631742	100
89378.14	0.2631825	100
89378.23	0.2631882	100
89378.34	0.2631963	100
89378.44	0.263203	100
89378.53	0.2632094	100
89378.63	0.2632165	100
89378.73	0.2632232	100
89378.84	0.2632291	100
89378.93	0.2632356	100
89379.04	0.2632419	100
89379.13	0.2632518	100
89379.23	0.2632576	100
89379.34	0.2632651	100
89379.44	0.2632728	100
89379.53	0.2632803	100
89379.63	0.2632876	100
89379.73	0.2632939	100
89379.84	0.2633009	100
89379.93	0.2633073	100
89380.04	0.2633162	100
89380.13	0.2633237	100
89380.23	0.2633286	100
89380.34	0.2633353	100
89380.44	0.2633431	100
89380.53	0.2633484	100
89380.63	0.263354	100
89380.73	0.2633625	100
89380.84	0.263368	100
89380.93	0.263375	100
89381.04	0.2633826	100
89381.13	0.26339	100
89381.23	0.2633976	100
89381.34	0.2634043	100
89381.44	0.2634116	100
89381.53	0.2634219	100
89381.63	0.2634278	100
89381.73	0.2634346	100
89381.84	0.263441	100
89381.93	0.2634488	100
89382.04	0.2634568	100
89382.13	0.2634644	100
89382.23	0.2634722	100
89382.34	0.2634798	100
89382.44	0.2634857	100
89382.53	0.2634927	100
89382.63	0.2634984	100
89382.73	0.2635046	100
89382.84	0.2635153	100
89382.93	0.2635234	100
89383.04	0.2635333	100
89383.13	0.2635395	100
89383.23	0.2635465	100
89383.34	0.2635552	100
89383.44	0.2635619	100
89383.53	0.2635696	100
89383.63	0.2635763	100
89383.73	0.2635817	100
89383.84	0.2635896	100
89383.93	0.2635973	100
89384.04	0.2636043	100
89384.13	0.2636116	100
89384.23	0.2636186	100
89384.34	0.2636239	100
89384.44	0.2636328	100
89384.53	0.2636399	100
89384.63	0.2636473	100
89384.73	0.2636543	100
89384.84	0.263662	100
89384.93	0.2636688	100
89385.04	0.263676	100
89385.13	0.2636833	100
89385.23	0.2636903	100
89385.34	0.2636963	100
89385.44	0.2637039	100
89385.53	0.2637105	100
89385.63	0.2637171	100
89385.73	0.2637239	100
89385.84	0.2637315	100
89385.93	0.2637404	100
89386.04	0.2637448	100
89386.13	0.2637512	100
89386.23	0.2637571	100
89386.34	0.263766	100
89386.44	0.2637733	100
89386.53	0.2637826	100
89386.63	0.2637889	100
89386.73	0.2637969	100
89386.84	0.2638033	100
89386.93	0.2638118	100
89387.04	0.2638201	100
89387.13	0.2638275	100
89387.23	0.2638349	100
89387.34	0.263842	100
89387.44	0.2638496	100
89387.53	0.2638565	100
89387.63	0.2638615	100
89387.73	0.2638705	100
89387.84	0.2638782	100
89387.93	0.2638856	100
89388.04	0.2638925	100
89388.13	0.2639008	100
89388.23	0.2639066	100
89388.34	0.2639137	100
89388.44	0.2639227	100
89388.53	0.2639288	100
89388.63	0.2639359	100
89388.73	0.2639424	100
89388.84	0.2639505	100
89388.93	0.2639594	100
89389.04	0.2639649	100
89389.13	0.2639745	100
89389.23	0.2639817	100
89389.34	0.2639885	100
89389.44	0.2639973	100
89389.53	0.2640043	100
89389.63	0.2640123	100
89389.73	0.2640186	100
89389.84	0.2640263	100
89389.93	0.2640332	100
89390.04	0.264042	100
89390.13	0.2640488	100
89390.23	0.2640572	100
89390.34	0.2640636	100
89390.44	0.2640716	100
89390.53	0.2640789	100
89390.63	0.2640872	100
89390.73	0.2640958	100
89390.84	0.2641029	100
89390.93	0.2641107	100
89391.04	0.2641165	100
89391.13	0.2641247	100
89391.23	0.2641337	100
89391.34	0.2641404	100
89391.44	0.2641476	100
89391.53	0.2641527	100
89391.63	0.2641612	100
89391.73	0.2641685	100
89391.84	0.2641766	100
89391.93	0.2641827	100
89392.04	0.2641918	100
89392.13	0.2641986	100
89392.23	0.2642058	100
89392.34	0.2642132	100
89392.44	0.2642214	100
89392.53	0.2642292	100
89392.63	0.2642373	100
89392.73	0.2642434	100
89392.84	0.2642496	100
89392.93	0.2642573	100
89393.04	0.2642623	100
89393.13	0.26427	100
89393.23	0.2642795	100
89393.34	0.2642846	100
89393.44	0.2642925	100
89393.53	0.2643001	100
89393.63	0.2643092	100
89393.73	0.2643162	100
89393.84	0.2643221	100
89393.93	0.2643291	100
89394.04	0.2643347	100
89394.13	0.2643436	100
89394.23	0.2643508	100
89394.34	0.2643597	100
89394.44	0.2643669	100
89394.53	0.2643733	100
89394.63	0.26438	100
89394.73	0.2643864	100
89394.83	0.2643934	100
89394.93	0.2644034	100
89395.03	0.2644103	100
89395.13	0.2644177	100
89395.23	0.2644237	100
89395.34	0.2644302	100
89395.43	0.264439	100
89395.53	0.2644457	100
89395.63	0.2644498	100
89395.73	0.2644601	100
89395.83	0.264469	100
89395.93	0.2644765	100
89396.03	0.2644824	100
89396.13	0.2644893	100
89396.23	0.2644969	100
89396.34	0.2645031	100
89396.43	0.2645091	100
89396.53	0.2645166	100
89396.63	0.2645252	100
89396.73	0.2645329	100
89396.83	0.2645395	100
89396.93	0.264548	100
89397.03	0.2645533	100
89397.13	0.2645605	100
89397.23	0.2645671	100
89397.34	0.2645757	100
89397.43	0.2645835	100
89397.53	0.2645909	100
89397.63	0.2645993	100
89397.73	0.2646054	100
89397.83	0.2646121	100
89397.93	0.264619	100
89398.03	0.2646242	100
89398.13	0.2646319	100
89398.23	0.2646371	100
89398.34	0.2646452	100
89398.43	0.2646539	100
89398.53	0.2646612	100
89398.63	0.2646673	100
89398.73	0.2646748	100
89398.83	0.2646803	100
89398.93	0.2646882	100
89399.03	0.2646948	100
89399.13	0.2647008	100
89399.23	0.2647078	100
89399.34	0.2647157	100
89399.43	0.2647239	100
89399.53	0.2647298	100
89399.63	0.2647355	100
89399.73	0.2647434	100
89399.83	0.2647497	100
89399.93	0.2647572	100
89400.03	0.2647627	100
89400.13	0.2647697	100
89400.23	0.2647777	100
89400.34	0.2647848	100
89400.43	0.2647917	100
89400.53	0.2647982	100
89400.63	0.2648035	100
89400.73	0.2648104	100
89400.83	0.264817	100
89400.93	0.2648241	100
89401.03	0.2648326	100
89401.13	0.2648382	100
89401.23	0.264846	100
89401.34	0.2648518	100
89401.43	0.2648596	100
89401.53	0.2648665	100
89401.63	0.2648729	100
89401.73	0.2648811	100
89401.83	0.2648892	100
89401.93	0.2648965	100
89402.03	0.2649037	100
89402.13	0.2649106	100
89402.23	0.2649172	100
89402.34	0.264922	100
89402.43	0.2649291	100
89402.53	0.2649354	100
89402.63	0.2649412	100
89402.73	0.2649503	100
89402.83	0.2649591	100
89402.93	0.2649654	100
89403.03	0.2649725	100
89403.13	0.2649786	100
89403.23	0.2649855	100
89403.34	0.2649931	100
89403.43	0.2650005	100
89403.53	0.2650083	100
89403.63	0.2650168	100
89403.73	0.2650224	100
89403.83	0.2650304	100
89403.93	0.265039	100
89404.03	0.2650451	100
89404.13	0.2650524	100
89404.23	0.2650603	100
89404.34	0.2650687	100
89404.43	0.2650742	100
89404.53	0.2650817	100
89404.63	0.2650885	100
89404.73	0.2650965	100
89404.83	0.2651035	100
89404.93	0.2651093	100
89405.03	0.2651157	100
89405.13	0.2651217	100
89405.23	0.265129	100
89405.34	0.2651361	100
89405.43	0.2651455	100
89405.53	0.2651509	100
89405.63	0.2651574	100
89405.73	0.2651639	100
89405.83	0.2651708	100
89405.93	0.265178	100
89406.03	0.2651828	100
89406.13	0.2651912	100
89406.23	0.265199	100
89406.34	0.2652059	100
89406.43	0.2652127	100
89406.53	0.2652186	100
89406.63	0.2652265	100
89406.73	0.265233	100
89406.83	0.2652404	100
89406.93	0.2652486	100
89407.03	0.2652552	100
89407.13	0.2652624	100
89407.23	0.2652691	100
89407.34	0.2652769	100
89407.43	0.2652815	100
89407.53	0.2652871	100
89407.63	0.2652927	100
89407.73	0.2653014	100
89407.83	0.265308	100
89407.93	0.2653157	100
89408.03	0.2653222	100
89408.13	0.2653292	100
89408.23	0.2653374	100
89408.34	0.2653437	100
89408.43	0.2653491	100
89408.53	0.2653561	100
89408.63	0.2653627	100
89408.73	0.2653701	100
89408.83	0.2653771	100
89408.93	0.2653837	100
89409.03	0.2653915	100
89409.13	0.2653992	100
89409.23	0.2654051	100
89409.34	0.265413	100
89409.43	0.2654191	100
89409.53	0.2654267	100
89409.63	0.2654332	100
89409.73	0.2654406	100
89409.83	0.2654478	100
89409.93	0.265455	100
89410.03	0.2654599	100
89410.13	0.2654672	100
89410.23	0.2654741	100
89410.34	0.2654811	100
89410.43	0.2654874	100
89410.53	0.2654931	100
89410.63	0.2655002	100
89410.73	0.2655072	100
89410.83	0.2655152	100
89410.93	0.2655224	100
89411.03	0.2655298	100
89411.13	0.2655373	100
89411.23	0.2655413	100
89411.33	0.2655498	100
89411.43	0.2655559	100
89411.52	0.2655618	100
89411.63	0.2655688	100
89411.73	0.2655771	100
89411.83	0.2655843	100
89411.92	0.2655921	100
89412.03	0.2655962	100
89412.13	0.265603	100
89412.23	0.2656118	100
89412.33	0.2656201	100
89412.43	0.2656268	100
89412.52	0.2656344	100
89412.63	0.2656415	100
89412.73	0.2656492	100
89412.83	0.2656564	100
89412.92	0.265663	100
89413.03	0.2656712	100
89413.13	0.2656785	100
89413.23	0.2656863	100
89413.33	0.2656931	100
89413.43	0.265701	100
89413.52	0.2657085	100
89413.63	0.2657156	100
89413.73	0.2657221	100
89413.83	0.2657299	100
89413.92	0.2657349	100
89414.03	0.2657415	100
89414.13	0.2657475	100
89414.23	0.2657552	100
89414.33	0.2657615	100
89414.43	0.2657697	100
89414.52	0.2657751	100
89414.63	0.2657832	100
89414.73	0.2657899	100
89414.83	0.2657965	100
89414.92	0.2658034	100
89415.03	0.2658113	100
89415.13	0.2658175	100
89415.23	0.265824	100
89415.33	0.2658292	100
89415.43	0.2658365	100
89415.52	0.2658426	100
89415.63	0.2658468	100
89415.73	0.2658533	100
89415.83	0.2658614	100
89415.92	0.2658686	100
89416.03	0.2658734	100
89416.13	0.2658813	100
89416.23	0.2658886	100
89416.33	0.2658958	100
89416.43	0.2659028	100
89416.52	0.2659098	100
89416.63	0.2659146	100
89416.73	0.265922	100
89416.83	0.2659281	100
89416.92	0.2659356	100
89417.03	0.2659418	100
89417.13	0.2659484	100
89417.23	0.2659556	100
89417.33	0.2659621	100
89417.43	0.2659684	100
89417.52	0.2659754	100
89417.63	0.2659817	100
89417.73	0.2659895	100
89417.83	0.2659967	100
89417.92	0.2660033	100
89418.03	0.2660087	100
89418.13	0.2660153	100
89418.23	0.2660222	100
89418.33	0.2660289	100
89418.43	0.2660363	100
89418.52	0.2660422	100
89418.63	0.2660505	100
89418.73	0.266057	100
89418.83	0.2660651	100
89418.92	0.2660707	100
89419.03	0.2660782	100
89419.13	0.2660852	100
89419.23	0.2660929	100
89419.33	0.2660987	100
89419.43	0.2661071	100
89419.52	0.2661118	100
89419.63	0.2661196	100
89419.73	0.2661259	100
89419.83	0.2661346	100
89419.92	0.2661401	100
89420.03	0.2661485	100
89420.13	0.2661539	100
89420.23	0.2661619	100
89420.33	0.266167	100
89420.43	0.2661739	100
89420.52	0.2661827	100
89420.63	0.2661898	100
89420.73	0.2661967	100
89420.83	0.266203	100
89420.92	0.2662092	100
89421.03	0.266217	100
89421.13	0.2662231	100
89421.23	0.2662322	100
89421.33	0.266238	100
89421.43	0.2662469	100
89421.52	0.2662516	100
89421.63	0.2662595	100
89421.73	0.2662664	100
89421.83	0.266274	100
89421.92	0.266279	100
89422.03	0.2662871	100
89422.13	0.2662935	100
89422.23	0.2663013	100
89422.33	0.2663067	100
89422.43	0.2663146	100
89422.52	0.2663197	100
89422.63	0.2663271	100
89422.73	0.266333	100
89422.83	0.2663394	100
89422.92	0.2663454	100
89423.03	0.2663543	100
89423.13	0.2663597	100
89423.23	0.266368	100
89423.33	0.2663733	100
89423.43	0.2663791	100
89423.52	0.266387	100
89423.63	0.266394	100
89423.73	0.266401	100
89423.83	0.266407	100
89423.92	0.266414	100
89424.03	0.2664202	100
89424.13	0.266427	100
89424.23	0.266433	100
89424.33	0.2664404	100
89424.43	0.2664454	100
89424.52	0.2664508	100
89424.63	0.2664587	100
89424.73	0.266467	100
89424.83	0.2664729	100
89424.92	0.2664803	100
89425.03	0.2664868	100
89425.13	0.2664944	100
89425.23	0.2665006	100
89425.33	0.2665079	100
89425.43	0.2665151	100
89425.52	0.2665224	100
89425.63	0.266528	100
89425.73	0.2665347	100
89425.83	0.2665425	100
89425.92	0.2665468	100
89426.03	0.2665545	100
89426.13	0.26656	100
89426.23	0.2665662	100
89426.33	0.2665736	100
89426.43	0.26658	100
89426.52	0.2665876	100
89426.63	0.2665937	100
89426.73	0.2666004	100
89426.83	0.2666062	100
89426.92	0.2666114	100
89427.03	0.2666193	100
89427.13	0.266626	100
89427.23	0.2666331	100
89427.33	0.2666374	100
89427.43	0.2666443	100
89427.52	0.2666527	100
89427.62	0.2666576	100
89427.73	0.2666647	100
89427.82	0.2666719	100
89427.92	0.2666799	100
89428.02	0.2666864	100
89428.13	0.2666928	100
89428.22	0.2666983	100
89428.33	0.2667059	100
89428.42	0.2667105	100
89428.52	0.2667164	100
89428.62	0.2667232	100
89428.73	0.2667311	100
89428.82	0.2667384	100
89428.92	0.2667456	100
89429.02	0.2667528	100
89429.13	0.2667594	100
89429.22	0.2667657	100
89429.33	0.2667734	100
89429.42	0.2667805	100
89429.52	0.2667867	100
89429.62	0.2667944	100
89429.73	0.2667998	100
89429.82	0.2668062	100
89429.92	0.2668125	100
89430.02	0.2668222	100
89430.13	0.2668296	100
89430.22	0.2668364	100
89430.33	0.2668432	100
89430.42	0.2668518	100
89430.52	0.2668598	100
89430.62	0.2668675	100
89430.73	0.2668725	100
89430.82	0.2668783	100
89430.92	0.2668846	100
89431.02	0.2668905	100
89431.13	0.2668973	100
89431.22	0.2669043	100
89431.33	0.266912	100
89431.42	0.2669186	100
89431.52	0.2669252	100
89431.62	0.2669312	100
89431.73	0.266938	100
89431.82	0.2669456	100
89431.92	0.266952	100
89432.02	0.2669601	100
89432.13	0.2669659	100
89432.22	0.2669711	100
89432.33	0.2669787	100
89432.42	0.2669867	100
89432.52	0.2669926	100
89432.62	0.2669977	100
89432.73	0.2670031	100
89432.82	0.2670088	100
89432.92	0.2670162	100
89433.02	0.267025	100
89433.13	0.2670293	100
89433.22	0.2670376	100
89433.33	0.2670418	100
89433.42	0.2670497	100
89433.52	0.2670555	100
89433.62	0.2670609	100
89433.73	0.2670659	100
89433.82	0.2670728	100
89433.92	0.2670791	100
89434.02	0.2670856	100
89434.13	0.2670931	100
89434.22	0.2671001	100
89434.33	0.2671055	100
89434.42	0.2671126	100
89434.52	0.2671184	100
89434.62	0.2671242	100
89434.73	0.2671299	100
89434.82	0.2671375	100
89434.92	0.2671448	100
89435.02	0.2671532	100
89435.13	0.2671601	100
89435.22	0.2671666	100
89435.33	0.2671737	100
89435.42	0.2671789	100
89435.52	0.2671866	100
89435.62	0.2671922	100
89435.73	0.2672001	100
89435.82	0.2672075	100
89435.92	0.2672154	100
89436.02	0.2672216	100
89436.13	0.2672289	100
89436.22	0.2672357	100
89436.33	0.2672415	100
89436.42	0.2672488	100
89436.52	0.2672554	100
89436.62	0.2672612	100
89436.73	0.2672679	100
89436.82	0.2672753	100
89436.92	0.2672815	100
89437.02	0.2672883	100
89437.13	0.267293	100
89437.22	0.2673008	100
89437.33	0.2673076	100
89437.42	0.2673131	100
89437.52	0.2673193	100
89437.62	0.2673265	100
89437.73	0.2673319	100
89437.82	0.2673394	100
89437.92	0.2673441	100
89438.02	0.2673507	100
89438.13	0.2673568	100
89438.22	0.2673629	100
89438.33	0.2673707	100
89438.42	0.2673772	100
89438.52	0.2673849	100
89438.62	0.2673911	100
89438.73	0.267397	100
89438.82	0.2674032	100
89438.92	0.2674101	100
89439.02	0.2674164	100
89439.13	0.2674218	100
89439.22	0.2674295	100
89439.33	0.2674366	100
89439.42	0.2674431	100
89439.52	0.2674498	100
89439.62	0.267457	100
89439.73	0.2674639	100
89439.82	0.2674695	100
89439.92	0.267475	100
89440.02	0.2674822	100
89440.13	0.2674889	100
89440.22	0.267496	100
89440.33	0.2675018	100
89440.42	0.2675076	100
89440.52	0.267513	100
89440.62	0.2675191	100
89440.73	0.2675238	100
89440.82	0.2675319	100
89440.92	0.2675378	100
89441.02	0.2675436	100
89441.13	0.2675492	100
89441.22	0.2675571	100
89441.33	0.2675626	100
89441.42	0.2675672	100
89441.52	0.2675739	100
89441.62	0.2675805	100
89441.73	0.2675871	100
89441.82	0.2675962	100
89441.92	0.2676019	100
89442.02	0.2676092	100
89442.13	0.2676163	100
89442.22	0.2676227	100
89442.33	0.267628	100
89442.42	0.2676363	100
89442.52	0.2676417	100
89442.62	0.2676483	100
89442.73	0.2676557	100
89442.82	0.2676643	100
89442.92	0.2676699	100
89443.02	0.2676788	100
89443.13	0.2676854	100
89443.22	0.2676933	100
89443.33	0.2676974	100
89443.42	0.2677055	100
89443.52	0.2677114	100
89443.62	0.2677196	100
89443.73	0.2677274	100
89443.82	0.267734	100
89443.92	0.267738	100
89444.02	0.2677446	100
89444.12	0.2677516	100
89444.22	0.267758	100
89444.31	0.2677631	100
89444.42	0.2677714	100
89444.51	0.2677786	100
89444.62	0.2677856	100
89444.72	0.2677929	100
89444.82	0.2677995	100
89444.91	0.2678056	100
89445.02	0.267812	100
89445.12	0.2678199	100
89445.22	0.2678271	100
89445.31	0.2678326	100
89445.42	0.2678405	100
89445.51	0.2678466	100
89445.62	0.2678551	100
89445.72	0.2678608	100
89445.82	0.2678673	100
89445.91	0.2678731	100
89446.02	0.2678793	100
89446.12	0.2678861	100
89446.22	0.2678937	100
89446.31	0.2679006	100
89446.42	0.2679075	100
89446.51	0.2679159	100
89446.62	0.2679219	100
89446.72	0.2679293	100
89446.82	0.2679349	100
89446.91	0.2679418	100
89447.02	0.2679476	100
89447.12	0.2679559	100
89447.22	0.2679624	100
89447.31	0.2679692	100
89447.42	0.267975	100
89447.51	0.2679825	100
89447.62	0.2679885	100
89447.72	0.2679944	100
89447.82	0.2680007	100
89447.91	0.2680058	100
89448.02	0.2680133	100
89448.12	0.2680218	100
89448.22	0.2680292	100
89448.31	0.2680344	100
89448.42	0.2680398	100
89448.51	0.2680473	100
89448.62	0.2680533	100
89448.72	0.2680599	100
89448.82	0.2680667	100
89448.91	0.2680742	100
89449.02	0.2680801	100
89449.12	0.2680872	100
89449.22	0.2680946	100
89449.31	0.2681005	100
89449.42	0.2681055	100
89449.51	0.2681117	100
89449.62	0.2681174	100
89449.72	0.2681228	100
89449.82	0.2681292	100
89449.91	0.268135	100
89450.02	0.2681428	100
